#Wave		#Intensity
750.175598	39.182297
750.125549	64.370911
750.075500	64.359932
750.025452	83.933418
749.975342	145.459763
749.925293	25.171434
749.875244	33.556187
749.825134	55.917435
749.775085	41.930920
749.724976	69.872940
749.674927	53.094372
749.624817	44.703419
749.574707	69.837173
749.524658	58.653214
749.474548	27.925335
749.424438	13.960284
749.374390	39.082123
749.324280	44.657661
749.274170	50.231293
749.224060	41.852264
749.174011	47.424469
749.123901	58.573162
749.073730	66.929329
749.023682	39.035442
748.973572	66.906479
748.923401	61.320461
748.873352	75.244080
748.823181	75.231232
748.773071	30.644526
748.723022	11.141561
748.672852	44.558632
748.622803	44.551022
748.572632	47.327374
748.522522	50.102779
748.472351	55.660244
748.422241	50.085663
748.372131	55.641228
748.322021	36.160618
748.271851	55.622219
748.221741	19.464449
748.171570	52.823051
748.121460	69.492134
748.071289	61.142632
748.021179	47.238506
747.971008	52.786953
747.920837	33.333431
747.870728	49.991600
747.820557	61.090401
747.770386	77.738129
747.720276	41.638309
747.670105	69.385315
747.619934	55.498764
747.569763	41.616959
747.519653	36.061863
747.469482	63.790852
747.419312	41.595615
747.369141	41.588501
747.318970	55.441856
747.268799	36.031044
747.218628	55.422894
747.168457	41.560062
747.118286	38.782757
747.068115	16.618340
747.017944	80.308235
746.967712	27.687757
746.917542	41.524532
746.867371	60.892231
746.817139	52.579746
746.767029	66.405159
746.716797	27.664083
746.666626	30.425285
746.616394	63.605621
746.566223	35.944851
746.516052	19.351608
746.465820	44.224678
746.415649	69.089233
746.365417	66.314316
746.315186	52.489845
746.265015	30.383657
746.214783	30.378458
746.164551	52.462898
746.114319	33.128792
746.064148	33.123119
746.013916	44.156601
745.963745	35.871094
745.913513	46.900326
745.863281	49.650665
745.813049	49.642162
745.762817	63.420792
745.712585	57.896027
745.662354	71.668518
745.612122	46.852161
745.561951	49.599674
745.511658	63.366508
745.461487	41.318905
745.411194	44.065948
745.360962	52.319351
745.310730	24.778606
745.260437	52.301430
745.210205	57.796940
745.159973	24.765873
745.109741	35.766800
745.059509	57.767239
745.009216	44.005592
744.958923	46.747932
744.908691	8.248221
744.858398	30.238295
744.808228	49.472366
744.757935	10.991976
744.707642	57.697979
744.657410	93.399765
744.607117	65.917946
744.556885	41.191654
744.506592	38.438953
744.456299	71.374390
744.406006	38.425777
744.355774	13.721139
744.305481	41.156361
744.255249	49.379162
744.204895	65.827599
744.154602	60.331615
744.104309	49.353767
744.054077	35.638275
744.003784	24.668421
743.953430	54.809311
743.903198	71.239883
743.852905	27.395256
743.802551	32.868668
743.752258	30.124445
743.701965	52.024208
743.651733	35.589405
743.601379	43.794827
743.551086	54.734142
743.500793	41.043564
743.450500	32.829220
743.400146	65.647171
743.349854	32.817951
743.299561	30.077961
743.249207	57.411709
743.198853	46.468170
743.148560	46.460194
743.098267	35.522285
743.047913	49.176262
742.997559	32.778549
742.947266	60.083687
742.896912	13.653040
742.846619	35.491810
742.796265	62.782421
742.745972	40.938026
742.695557	79.133263
742.645264	54.565296
742.594910	60.011517
742.544556	21.818623
742.494202	54.537189
742.443909	62.707001
742.393494	54.518459
742.343201	76.312737
742.292847	19.074907
742.242432	46.316818
742.192078	49.032913
742.141785	21.788662
742.091431	46.292953
742.041016	59.898239
741.990723	27.221794
741.940308	29.938829
741.889954	62.588615
741.839600	57.136307
741.789185	62.567108
741.738831	27.198416
741.688477	54.387486
741.638062	40.783604
741.587769	51.650352
741.537292	46.205532
741.486938	54.350105
741.436584	67.925957
741.386169	46.181709
741.335754	62.470394
741.285400	29.872009
741.234985	48.873066
741.184631	43.435257
741.134277	37.999317
741.083862	32.565243
741.033447	43.412857
740.983093	40.692554
740.932617	48.822670
740.882202	43.390465
740.831848	32.537251
740.781433	62.352341
740.731018	40.657578
740.680603	59.620853
740.630188	40.643589
740.579834	43.345707
740.529358	43.338249
740.478943	54.163490
740.428528	46.031048
740.378113	56.852100
740.327698	32.481323
740.277283	43.300980
740.226868	45.999374
740.176392	45.991459
740.125977	56.803204
740.075562	48.680080
740.025146	54.079670
739.974670	40.552773
739.924255	37.842739
739.873779	24.323288
739.823364	32.425468
739.772949	27.016573
739.722473	43.219074
739.672058	43.211636
739.621582	32.403145
739.571167	56.695744
739.520691	35.091320
739.470276	56.676220
739.419800	48.571251
739.369324	32.375259
739.318848	29.672209
739.268433	59.334198
739.217896	59.323978
739.167480	45.833363
739.117004	43.129852
739.066589	24.256363
739.016113	26.946871
738.965576	43.107567
738.915161	59.262695
738.864685	32.319538
738.814209	35.006798
738.763733	51.154968
738.713257	53.838058
738.662720	45.754463
738.612244	45.746578
738.561768	32.286137
738.511292	43.040764
738.460754	51.102100
738.410278	37.647690
738.359802	24.197914
738.309326	32.258324
738.258850	37.628223
738.208313	21.498137
738.157837	26.868038
738.107361	42.981449
738.056824	37.602283
738.006287	61.764530
737.955811	51.014072
737.905273	32.213860
737.854736	48.312458
737.804260	34.886314
737.753784	42.929596
737.703247	37.556919
737.652710	48.279137
737.602173	48.270809
737.551697	67.031227
737.501160	48.254162
737.450623	58.967133
737.400085	66.996544
737.349609	45.549793
737.299072	18.752562
737.248535	45.534077
737.197998	66.950325
737.147461	72.293869
737.096924	18.739622
737.046387	26.766268
736.995850	66.904121
736.945312	53.514061
736.894775	45.479099
736.844177	42.796471
736.793640	42.789085
736.743042	69.520264
736.692566	32.080734
736.641968	40.093998
736.591431	48.104488
736.540833	45.424175
736.490295	48.087879
736.439758	45.408489
736.389221	53.412529
736.338623	24.031488
736.288086	40.045563
736.237488	53.384865
736.186890	42.700516
736.136353	61.371387
736.085815	61.360790
736.035217	56.015392
735.984619	64.006531
735.934082	45.330128
735.883423	31.992210
735.832886	55.976696
735.782288	55.967026
735.731689	47.963448
735.681152	21.313404
735.630554	18.646006
735.579895	53.265099
735.529358	34.616329
735.478760	50.584354
735.428162	50.575615
735.377563	53.228287
735.326965	37.253361
735.276367	55.870384
735.225769	74.480965
735.175110	55.851070
735.124512	31.909380
735.073914	29.245209
735.023315	63.796696
734.972717	37.208305
734.922058	37.201870
734.871521	58.449974
734.820862	21.250860
734.770264	37.182575
734.719604	26.554390
734.669006	34.514736
734.618408	23.890684
734.567749	37.156860
734.517090	55.725651
734.466492	58.369156
734.415833	42.442951
734.365173	26.522255
734.314575	26.517668
734.263916	66.282700
734.213257	50.366135
734.162659	37.105469
734.112000	26.499319
734.061401	39.742100
734.010742	31.788179
733.960022	50.322575
733.909424	82.091042
733.858826	37.066956
733.808105	29.118998
733.757446	68.814804
733.706848	23.816387
733.656189	34.395493
733.605469	31.744190
733.554810	-7.934673
733.504150	44.955364
733.453491	42.303608
733.402832	60.800903
733.352173	58.147316
733.301453	47.566841
733.250793	18.495012
733.200134	44.908680
733.149475	36.977215
733.098755	44.893124
733.048096	47.525665
732.997437	36.958004
732.946716	50.148602
732.896057	47.500973
732.845398	47.492741
732.794678	68.588745
732.744019	34.288429
732.693298	55.379406
732.642639	31.639891
732.591919	42.179211
732.541199	60.622112
732.490540	42.164597
732.439819	71.140427
732.389099	23.709364
732.338379	47.410511
732.287720	50.035755
732.236938	65.825104
732.186279	36.855671
732.135559	44.745556
732.084839	15.789811
732.034119	49.992401
731.983398	39.460842
731.932739	28.932934
731.881958	55.226025
731.831238	23.664192
731.780518	23.660088
731.729797	23.655985
731.679077	47.303764
731.628357	57.805687
731.577576	39.406132
731.526855	42.025917
731.476135	52.523285
731.425354	36.759922
731.374634	26.252531
731.323914	55.120750
731.273193	68.232903
731.222412	55.101627
731.171692	36.728046
731.120911	57.705486
731.070190	70.808075
731.019470	36.708927
730.968689	18.351278
730.917908	44.559658
730.867188	49.793327
730.816406	47.164436
730.765686	47.156250
730.714905	34.051380
730.664124	31.426588
730.613342	41.894844
730.562622	57.595409
730.511841	39.262779
730.461060	36.638897
730.410278	23.549488
730.359558	47.090797
730.308777	39.235516
730.257996	28.767715
730.207214	39.221889
730.156433	20.914709
730.105591	28.752729
730.054871	62.722332
730.004089	70.550369
729.953308	65.313065
729.902527	18.284483
729.851685	39.174225
729.800903	23.500452
729.750122	33.939201
729.699280	52.205082
729.648499	36.537209
729.597717	62.624332
729.546936	36.524513
729.496094	49.560368
729.445312	59.983700
729.394470	46.935608
729.343689	28.677885
729.292908	41.706039
729.242065	46.911137
729.191284	39.085819
729.140442	39.079025
729.089600	49.491493
729.038757	7.813087
728.987976	54.682102
728.937195	39.051853
728.886292	52.060085
728.835449	67.666344
728.784668	44.235683
728.733826	39.024700
728.682983	78.035820
728.632202	54.615574
728.581299	52.005787
728.530457	51.996742
728.479675	36.391388
728.428772	25.989326
728.377991	28.583286
728.327148	20.784227
728.276306	25.975765
728.225403	44.151115
728.174561	51.933453
728.123718	54.520638
728.072876	28.553459
728.022034	23.357855
727.971191	12.974328
727.920288	46.699451
727.869446	36.315475
727.818604	38.902664
727.767761	38.895893
727.716858	75.185638
727.666016	46.658821
727.615112	49.242405
727.564270	46.642578
727.513428	41.452850
727.462524	64.758804
727.411621	31.078812
727.360779	46.610100
727.309875	56.957981
727.258972	41.416771
727.208130	36.233364
727.157227	33.639408
727.106323	43.982330
727.055481	56.908398
727.004578	25.862947
726.953674	12.929221
726.902832	31.024725
726.851868	31.019320
726.801025	31.013916
726.750122	51.680855
726.699219	12.917962
726.648315	20.665138
726.597412	38.740379
726.546509	36.151386
726.495605	74.871971
726.444702	28.394762
726.393799	23.228029
726.342896	56.769730
726.291931	30.959909
726.241028	41.272682
726.190125	38.686394
726.139221	56.730156
726.088318	38.672909
726.037354	38.666164
725.986450	28.350243
725.935547	51.536911
725.884583	30.916754
725.833618	33.487309
725.782715	51.509953
725.731812	28.325533
725.680847	48.917385
725.629883	38.612255
725.578979	36.031818
725.528076	30.879028
725.477112	33.446445
725.426147	38.585320
725.375183	59.153831
725.324219	15.428742
725.273315	48.849159
725.222351	48.840637
725.171448	35.981556
725.120422	41.114605
725.069519	59.091927
725.018555	35.962723
724.967590	56.502987
724.916626	38.518040
724.865662	33.376472
724.814697	64.174324
724.763733	41.064396
724.712769	48.755459
724.661804	51.312576
724.610840	25.651808
724.559875	53.859390
724.508911	35.899990
724.457886	58.968258
724.406921	51.267792
724.355957	35.881187
724.304993	51.249886
724.254028	30.744562
724.203003	38.423988
724.152039	28.172670
724.101013	30.728455
724.050049	35.843601
723.999023	25.598099
723.948059	40.949802
723.897034	35.824818
723.846069	40.935497
723.795044	30.696257
723.744080	33.248466
723.693054	30.685530
723.642029	63.917015
723.591064	35.787273
723.540039	25.557871
723.489075	40.885445
723.438049	45.988087
723.386963	43.425602
723.335999	66.404015
723.284973	30.642651
723.233948	33.190399
723.182922	22.973951
723.131897	56.148731
723.080933	58.690681
723.029846	63.783066
722.978882	43.364899
722.927795	45.907745
722.876770	35.699780
722.825745	45.891689
722.774719	40.785480
722.723694	66.264809
722.672668	10.192803
722.621643	45.859589
722.570557	56.040806
722.519531	53.484138
722.468506	33.103436
722.417419	61.103340
722.366394	35.637379
722.315369	53.446716
722.264343	20.357090
722.213257	27.986101
722.162170	55.962406
722.111145	66.125816
722.060120	30.514265
722.009033	33.051334
721.958008	30.503584
721.906921	50.830406
721.855835	20.328604
721.804810	25.406305
721.753723	48.263531
721.702637	30.476892
721.651611	30.471556
721.600464	35.543922
721.549438	38.076107
721.498352	76.138878
721.447266	27.912699
721.396179	35.519032
721.345093	35.512810
721.294006	38.042774
721.242920	30.428890
721.191895	50.705933
721.140747	32.953083
721.089661	45.619350
721.038635	17.737751
720.987488	25.335203
720.936401	35.463070
720.885315	40.522121
720.834229	43.047211
720.783142	32.912685
720.731995	60.751232
720.680908	30.370293
720.629761	45.547455
720.578674	35.419590
720.527527	50.590542
720.476440	60.698009
720.425354	70.801933
720.374207	32.866562
720.323120	60.666092
720.272034	42.964283
720.220886	30.322411
720.169800	35.369942
720.118652	35.363739
720.067566	35.357540
720.016418	35.351337
719.965271	25.246527
719.914185	68.153664
719.862976	32.808971
719.811890	20.186596
719.760742	27.751699
719.709595	35.314148
719.658447	37.829948
719.607300	37.823315
719.556213	42.858902
719.505066	40.330711
719.453918	37.803406
719.402771	55.435268
719.351624	32.751453
719.300476	32.745708
719.249329	42.813793
719.198120	47.842312
719.147034	25.175745
719.095886	30.205591
719.044678	60.400578
718.993530	47.808727
718.942383	47.800335
718.891235	40.245846
718.840027	32.694008
718.788879	42.746197
718.737732	35.196568
718.686584	35.190388
718.635376	42.723682
718.584167	52.767044
718.533020	32.659576
718.481812	55.260345
718.430664	37.670891
718.379456	30.131418
718.328308	60.252251
718.277100	25.100693
718.225952	42.663681
718.174744	17.564312
718.123535	50.174931
718.072388	25.083057
718.021179	57.680897
717.969971	32.596516
717.918762	57.660625
717.867615	55.143948
717.816406	20.048820
717.765198	40.090591
717.713989	50.104431
717.662781	40.076500
717.611572	32.556431
717.560364	32.550709
717.509155	50.069210
717.457947	57.569466
717.406738	42.543865
717.355530	32.527821
717.304321	47.532303
717.253113	42.521423
717.201904	35.011486
717.150635	15.002283
717.099426	32.499229
717.048218	54.989025
716.997009	47.482166
716.945740	54.969681
716.894531	27.480005
716.843323	54.950340
716.792114	42.454155
716.740784	27.465504
716.689575	44.935642
716.638367	57.407661
716.587158	47.415375
716.535889	39.921711
716.484619	32.430683
716.433411	39.907661
716.382141	49.875797
716.330872	34.906910
716.279663	37.393681
716.228394	29.909678
716.177185	17.444241
716.125854	69.764679
716.074646	42.349667
716.023376	39.851494
715.972107	37.354195
715.920837	22.408571
715.869629	24.894028
715.818298	9.955857
715.767090	44.793468
715.715820	17.416615
715.664551	37.314743
715.613281	57.205860
715.562012	32.328053
715.510681	24.863352
715.459412	47.232044
715.408142	34.796429
715.356873	27.335234
715.305603	39.753334
715.254333	44.714622
715.203003	34.771912
715.151733	24.832703
715.100403	52.139484
715.049133	47.165504
714.997864	42.193275
714.946533	19.852160
714.895264	52.102734
714.843994	27.287098
714.792664	37.203117
714.741394	37.196560
714.690063	29.752003
714.638794	39.662342
714.587463	27.263052
714.536194	52.038467
714.484863	44.596535
714.433594	42.111523
714.382263	56.964363
714.330933	49.525494
714.279602	69.323463
714.228271	42.081821
714.176941	51.974255
714.125671	22.270752
714.074341	32.163189
714.023010	39.578480
713.971680	51.937588
713.920349	49.455643
713.869019	34.612843
713.817749	44.494370
713.766357	34.600628
713.715027	44.478668
713.663696	64.235626
713.612366	32.112144
713.560974	56.803768
713.509705	32.100811
713.458313	39.501713
713.406982	17.278950
713.355652	46.891724
713.304321	49.350998
713.252930	39.473827
713.201599	49.333572
713.150269	46.858616
713.098938	39.452919
713.047546	29.584465
712.996216	44.368858
712.944824	54.219028
712.893494	29.568792
712.842102	22.172676
712.790710	36.947933
712.739380	39.404167
712.688049	32.010231
712.636658	81.242378
712.585266	46.767651
712.533875	63.986534
712.482544	39.369370
712.431152	24.601509
712.379761	9.838864
712.328430	49.185627
712.277039	22.129622
712.225647	49.168243
712.174255	44.243599
712.122864	66.353668
712.071472	22.113979
712.020081	49.133488
711.968689	54.037281
711.917297	29.469669
711.865906	36.830574
711.814514	56.463562
711.763123	53.999073
711.711731	56.443592
711.660339	26.989988
711.608948	63.783234
711.557495	46.602581
711.506104	26.975670
711.454712	22.067099
711.403259	36.771992
711.351868	41.667553
711.300476	34.308384
711.249084	26.951818
711.197632	53.894100
711.146240	63.681759
711.094788	53.875031
711.043335	19.587454
710.991943	44.063969
710.940552	39.161041
710.889099	53.836903
710.837708	24.466988
710.786255	56.264111
710.734802	63.591652
710.683411	36.680996
710.631958	26.894636
710.580566	24.445339
710.529053	41.549721
710.477661	56.204372
710.426208	21.989122
710.374817	36.642048
710.323364	12.211853
710.271912	39.071007
710.220398	31.739571
710.169006	24.410730
710.117554	29.287689
710.066101	41.483543
710.014648	26.837538
709.963196	36.590160
709.911682	34.144764
709.860291	26.823277
709.808838	36.570713
709.757324	48.752312
709.705872	7.311551
709.654419	41.424782
709.602966	43.853760
709.551453	41.410099
709.500000	43.838215
709.448547	24.350248
709.397095	46.257271
709.345581	29.209940
709.294067	31.638491
709.242676	26.766285
709.191101	48.657345
709.139648	38.918976
709.088196	38.912075
709.036682	41.336746
708.985168	29.173706
708.933716	43.752800
708.882202	41.314758
708.830750	38.877583
708.779236	21.864761
708.727783	41.292778
708.676270	33.999786
708.624756	41.278130
708.573242	48.553890
708.521790	29.127167
708.470215	41.256165
708.418701	46.101650
708.367249	24.259722
708.315735	12.127708
708.264221	46.077110
708.212708	36.370213
708.161194	48.485008
708.109680	72.714607
708.058167	31.504070
708.006653	26.652557
707.955139	58.140713
707.903625	41.175694
707.852112	58.120071
707.800598	36.318596
707.749084	16.945667
707.697510	45.987217
707.645935	24.199501
707.594482	41.131847
707.542908	38.705452
707.491333	24.186611
707.439819	36.273472
707.388306	33.849228
707.336792	38.677959
707.285217	55.589691
707.233704	33.831192
707.182129	62.818192
707.130615	53.144413
707.079041	43.474068
707.027466	41.051544
706.975952	45.872986
706.924377	41.036957
706.872803	48.270191
706.821289	31.370049
706.769714	21.713865
706.718201	24.122229
706.666626	26.529736
706.615051	33.759117
706.563477	57.862480
706.511902	21.694572
706.460327	24.100796
706.408813	28.915812
706.357178	60.230564
706.305603	38.540707
706.254028	40.942219
706.202454	48.158749
706.150879	62.595242
706.099304	33.699135
706.047791	31.286488
705.996155	64.968071
705.944580	45.710140
705.893005	43.296638
705.841431	38.479053
705.789795	43.281235
705.738220	50.485790
705.686646	26.440231
705.635010	50.467823
705.583435	43.250439
705.531860	45.645115
705.480225	38.431149
705.428650	26.416714
705.377014	28.813103
705.325439	40.811298
705.273865	43.204269
705.222229	50.396008
705.170654	47.987652
705.119019	45.580154
705.067383	43.173512
705.015808	55.156330
704.964172	55.146507
704.912598	19.177979
704.860962	52.730049
704.809326	2.396394
704.757690	4.791934
704.706055	38.328640
704.654480	28.741358
704.602844	21.552179
704.551208	19.154079
704.499573	57.452003
704.447937	38.294510
704.396301	26.322784
704.344666	28.710649
704.293030	16.744894
704.241394	38.267223
704.189758	50.216782
704.138123	43.035282
704.086487	21.513807
704.034851	19.119974
