#Wave		#Intensity
750.175598	4352.033691
750.125549	4357.630859
750.075500	4253.352051
750.025452	4330.964355
749.975342	4383.374023
749.925293	4178.458008
749.875244	4250.450195
749.825134	4123.910645
749.775085	4193.091797
749.724976	4125.298340
749.674927	4188.866699
749.624817	4241.236816
749.574707	4321.524414
749.524658	4206.273438
749.474548	4236.273438
749.424438	4283.015137
749.374390	4226.452637
749.324280	4351.330566
749.274170	4255.706543
749.224060	4241.029297
749.174011	4204.039551
749.123901	4259.105957
749.073730	4160.773438
749.023682	4232.557129
748.973572	4390.737305
748.923401	4217.175293
748.873352	4216.455566
748.823181	4162.794922
748.773071	4100.794922
748.723022	4478.907715
748.672852	4269.273926
748.622803	4307.526855
748.572632	4217.704102
748.522522	4300.488281
748.472351	4316.452148
748.422241	4315.714355
748.372131	4273.246582
748.322021	4258.608398
748.271851	4307.940918
748.221741	4212.663086
748.171570	4186.921875
748.121460	4394.682617
748.071289	4171.594727
748.021179	4173.660645
747.971008	4364.647461
747.920837	4263.901367
747.870728	4274.281738
747.820557	4165.254395
747.770386	4314.466309
747.720276	4080.554199
747.670105	4293.563477
747.619934	4342.778320
747.569763	4280.997559
747.519653	4208.142090
747.469482	4212.969727
747.419312	4406.362305
747.369141	4347.384766
747.318970	4293.971680
747.268799	4296.008789
747.218628	4212.140137
747.168457	4336.099609
747.118286	4343.668945
747.068115	4257.064453
747.017944	4212.028320
746.967712	4333.134277
746.917542	4243.807129
746.867371	4434.061523
746.817139	4281.098145
746.767029	4208.427246
746.716797	4315.597168
746.666626	4353.581543
746.616394	4137.130859
746.566223	4274.672363
746.516052	4298.821289
746.465820	4383.770996
746.415649	4396.838867
746.365417	4255.168457
746.315186	4331.793945
746.265015	4344.863281
746.214783	4186.703613
746.164551	4451.062988
746.114319	4265.332031
746.064148	4217.677246
746.013916	4335.625977
745.963745	4141.731934
745.913513	4356.212402
745.863281	4206.514648
745.813049	4216.826172
745.762817	4367.762207
745.712585	4284.305664
745.662354	4289.084961
745.612122	4362.762695
745.561951	4224.238770
745.511658	4284.126953
745.461487	4294.411621
745.411194	4241.347656
745.360962	4375.549805
745.310730	4245.400879
745.260437	4250.179199
745.210205	4400.824219
745.159973	4212.950195
745.109741	4333.285156
745.059509	4371.054199
745.009216	4254.791016
744.958923	4240.312500
744.908691	4280.826660
744.858398	4296.586914
744.808228	4243.629883
744.757935	4385.798340
744.707642	4393.289062
744.657410	4312.871582
744.607117	4375.303711
744.556885	4292.170410
744.506592	4382.041016
744.456299	4235.795898
744.406006	4311.920898
744.355774	4313.926270
744.305481	4307.698730
744.255249	4372.799316
744.204895	4251.365723
744.154602	4453.570312
744.104309	4238.940430
744.054077	4216.282227
744.003784	4327.937500
743.953430	4294.309570
743.903198	4394.952637
743.852905	4309.273926
743.802551	4371.532715
743.752258	4324.227051
743.701965	4328.961426
743.651733	4393.922363
743.601379	4357.585449
743.551086	4266.526367
743.500793	4183.707520
743.450500	4297.891602
743.400146	4395.625000
743.349854	4342.909180
743.299561	4314.820312
743.249207	4379.693359
743.198853	4354.340820
743.148560	4400.053711
743.098267	4382.903809
743.047913	4319.314941
742.997559	4367.741211
742.947266	4383.377930
742.896912	4409.931641
742.846619	4357.302246
742.796265	4383.850586
742.745972	4459.515625
742.695557	4461.479004
742.645264	4359.767090
742.594910	4421.757812
742.544556	4516.455078
742.494202	4502.044922
742.443909	4411.301270
742.393494	4424.172852
742.343201	4524.254883
742.292847	4335.454102
742.242432	4361.954590
742.192078	4467.443359
742.141785	4395.862793
742.091431	4356.983887
742.041016	4271.833496
741.990723	4488.874023
741.940308	4292.139160
741.889954	4451.955566
741.839600	4429.424316
741.789185	4401.459961
741.738831	4414.302734
741.688477	4402.666992
741.638062	4352.969727
741.587769	4384.843262
741.537292	4441.166992
741.486938	4345.291016
741.436584	4431.489258
741.386169	4403.561523
741.335754	4503.300781
741.285400	4345.019531
741.234985	4466.455078
741.184631	4465.687500
741.134277	4405.206543
741.083862	4491.289551
741.033447	4395.551758
740.983093	4568.417480
740.932617	4337.080566
740.882202	4398.708496
740.831848	4406.085938
740.781433	4595.096191
740.731018	4418.123047
740.680603	4487.824219
740.630188	4378.669434
740.579834	4543.171875
740.529358	4358.202637
740.478943	4471.196289
740.428528	4402.734375
740.378113	4431.756348
740.327698	4566.333008
740.277283	4508.714844
740.226868	4670.289551
740.176392	4517.984863
740.125977	4446.879395
740.075562	4486.680664
740.025146	4445.349121
739.974670	4444.583984
739.924255	4584.377441
739.873779	4548.455078
739.823364	4377.438477
739.772949	4490.154297
739.722473	4505.588379
739.672058	4534.520996
739.621582	4544.541016
739.571167	4535.659180
739.520691	4451.199219
739.470276	4423.443848
739.419800	4568.395996
739.369324	4648.547363
739.318848	4526.360840
739.268433	4452.761719
739.217896	4500.532715
739.167480	4545.591309
739.117004	4625.676758
739.066589	4422.743652
739.016113	4572.884277
738.965576	4485.881348
738.915161	4455.477051
738.864685	4532.814941
738.814209	4381.235352
738.763733	4383.172852
738.713257	4455.099121
738.662720	4553.914551
738.612244	4601.567383
738.561768	4442.034668
738.511292	4503.140137
738.460754	4631.463867
738.410278	4453.183594
738.359802	4514.255371
738.309326	4521.541992
738.258850	4493.885254
738.208313	4431.303223
738.157837	4747.582031
738.107361	4499.620605
738.056824	4643.881836
738.006287	4460.473145
737.955811	4596.636719
737.905273	4491.148926
737.854736	4482.322266
737.804260	4564.739746
737.753784	4432.480957
737.703247	4530.974121
737.652710	4629.433105
737.602173	4505.275879
737.551697	4475.004883
737.501160	4648.483887
737.450623	4438.616699
737.400085	4542.365723
737.349609	4659.475586
737.299072	4618.487793
737.248535	4540.015137
737.197998	4536.553711
737.147461	4559.869141
737.096924	4588.530273
737.046387	4643.947266
736.995850	4554.832520
736.945312	4484.478027
736.894775	4531.858398
736.844177	4456.182617
736.793640	4562.386230
736.743042	4524.164551
736.692566	4485.956055
736.641968	4723.072754
736.591431	4700.877441
736.540833	4499.665039
736.490295	4554.990723
736.439758	4492.769531
736.389221	4646.890137
736.338623	4496.558105
736.288086	4575.873047
736.237488	4527.036133
736.186890	4480.885254
736.136353	4504.126465
736.085815	4623.401855
736.035217	4566.587891
735.984619	4536.462891
735.934082	4573.009766
735.883423	4542.894043
735.832886	4507.456543
735.782288	4706.560059
735.731689	4601.826172
735.681152	4638.329590
735.630554	4610.891113
735.579895	4679.338867
735.529358	4606.634766
735.478760	4541.942871
735.428162	4621.014160
735.377563	4681.427734
735.326965	4632.721680
735.276367	4661.186035
735.225769	4506.098633
735.175110	4646.276855
735.124512	4605.586914
735.073914	4657.963867
735.023315	4588.045898
734.972717	4605.856445
734.922058	4735.266602
734.871521	4784.927734
734.820862	4616.749512
734.770264	4629.230469
734.719604	4572.666016
734.669006	4540.015137
734.618408	4679.919922
734.567749	4583.563965
734.517090	4718.104980
734.466492	4674.838379
734.415833	4636.892578
734.365173	4683.830078
734.314575	4669.761230
734.263916	4666.301758
734.213257	4707.908203
734.162659	4550.720703
734.112000	4793.727051
734.061401	4647.176270
734.010742	4511.272461
733.960022	4505.194336
733.909424	4671.245117
733.858826	4797.523438
733.808105	4791.398438
733.757446	4621.179199
733.706848	4763.277344
733.656189	4765.098633
733.605469	4745.756348
733.554810	4739.645020
733.504150	4678.002441
733.453491	4703.632324
733.402832	4679.026367
733.352173	4733.720215
733.301453	4706.474609
733.250793	4761.144531
733.200134	4659.936035
733.149475	4632.716309
733.098755	4719.059570
733.048096	4734.083984
732.997437	4683.106934
732.946716	4748.280762
732.896057	4689.401367
732.845398	4693.866211
732.794678	4724.708984
732.744019	4750.266113
732.693298	4670.330078
732.642639	4759.166992
732.591919	4734.616699
732.541199	4707.438477
732.490540	4674.999512
732.439819	4687.363281
732.389099	4707.625977
732.338379	4820.068848
732.287720	4787.631836
732.236938	4760.471680
732.186279	4720.158203
732.135559	4793.038574
732.084839	4768.522949
732.034119	4770.327637
731.983398	4837.899414
731.932739	4755.521973
731.881958	4883.558594
731.831238	4740.726562
731.780518	4713.615234
731.729797	4765.366699
731.679077	4761.912598
731.628357	4858.305176
731.577576	4799.666992
731.526855	4893.392578
731.476135	4713.964844
731.425354	4875.940918
731.374634	4691.327637
731.323914	4716.761719
731.273193	4744.811035
731.222412	4841.071777
731.171692	4834.984863
731.120911	4842.014648
731.070190	4843.796875
731.019470	4856.066895
730.968689	4847.359375
730.917908	4817.685547
730.867188	4753.952148
730.816406	4810.772461
730.765686	4804.698242
730.714905	4819.580078
730.664124	4881.596680
730.613342	4836.235840
730.562622	4741.149414
730.511841	4787.441406
730.461060	4749.971191
730.410278	4840.728027
730.359558	4808.493652
730.308777	4713.493652
730.257996	4885.281250
730.207214	4790.300293
730.156433	4914.956543
730.105591	4775.566895
730.054871	4813.938965
730.004089	4737.326660
729.953308	4898.479980
729.902527	4819.267090
729.851685	4787.090332
729.800903	4814.981445
729.750122	4772.373535
729.699280	4766.324219
729.648499	4901.205566
729.597717	4871.650879
729.546936	4899.502441
729.496094	4961.253418
729.445312	4730.888184
729.394470	4962.136719
729.343689	4841.348633
729.292908	4879.606445
729.242065	4868.333496
729.191284	4911.784668
729.140442	4921.352051
729.089600	4837.142090
729.038757	4864.949219
728.987976	4892.746582
728.937195	4792.964355
728.886292	4875.427246
728.835449	4911.015137
728.784668	4839.904297
728.733826	4833.859375
728.682983	4916.256836
728.632202	4928.405273
728.581299	4828.737305
728.530457	4851.295898
728.479675	4686.690918
728.428772	4789.833008
728.377991	4903.332520
728.327148	4897.283691
728.276306	4909.419434
728.225403	4939.730957
728.174561	4988.208008
728.123718	4886.087402
728.072876	5066.940918
728.022034	5029.725098
727.971191	4909.485840
727.920288	4882.687012
727.869446	4907.776855
727.818604	4785.027832
727.767761	4859.393555
727.716858	4936.325684
727.666016	4891.399902
727.615112	4986.441406
727.564270	4892.288086
727.513428	5093.519043
727.462524	4991.608398
727.411621	4856.064453
727.360779	4803.429688
727.309875	4812.949219
727.258972	4926.007324
727.208130	4829.389648
727.157227	5004.508789
727.106323	4905.323730
727.055481	5002.765625
727.004578	5038.102051
726.953674	4879.488281
726.902832	4963.956055
726.851868	4950.166504
726.801025	4907.952148
726.750122	4932.937500
726.699219	4813.232422
726.648315	5019.045410
726.597412	4922.611328
726.546509	4988.891602
726.495605	4969.949707
726.444702	4932.944824
726.393799	4968.217285
726.342896	4982.833984
726.291931	4994.865234
726.241028	4960.460449
726.190125	4853.853027
726.139221	4997.411133
726.088318	4981.070312
726.037354	4990.513184
725.986450	4958.715332
725.935547	5037.732910
725.884583	4938.951172
725.833618	4899.450684
725.782715	5037.673340
725.731812	4967.268555
725.680847	5105.430176
725.629883	5011.870605
725.578979	4856.574219
725.528076	4999.829102
725.477112	4983.520020
725.426147	4998.084961
725.375183	5251.831543
725.324219	5091.484863
725.273315	5003.182129
725.222351	4961.180176
725.171448	5006.576660
725.120422	4946.600586
725.069519	5048.505859
725.018555	5060.468750
724.967590	5085.268555
724.916626	4945.716309
724.865662	4939.718262
724.814697	5008.164062
724.763733	5112.517578
724.712769	4957.660156
724.661804	4928.572754
724.610840	5050.840820
724.559875	5039.700195
724.508911	5118.312988
724.457886	4881.546387
724.406921	5078.074707
724.355957	5113.069336
724.304993	5045.551270
724.254028	5126.655762
724.203003	5051.474121
724.152039	5045.469238
724.101013	5121.409180
724.050049	5020.664551
723.999023	5109.380859
723.948059	5077.775879
723.897034	5125.507812
723.846069	4999.247559
723.795044	5151.854980
723.744080	5094.688477
723.693054	5101.469238
723.642029	4962.517090
723.591064	5048.562012
723.540039	5034.900391
723.489075	4959.915527
723.438049	5158.330566
723.386963	5274.933594
723.335999	5016.057129
723.284973	5015.180176
723.233948	4970.900879
723.182922	5069.585449
723.131897	5145.265625
723.080933	5157.124512
723.029846	5013.349121
722.978882	5081.345703
722.927795	5225.832031
722.876770	5148.418457
722.825745	5063.383301
722.774719	5001.319336
722.723694	5217.079590
722.672668	5098.949707
722.621643	5131.178711
722.570557	5199.058105
722.519531	5139.570801
722.468506	5118.300293
722.417419	5175.962402
722.366394	5047.780273
722.315369	4960.364258
722.264343	5117.263672
722.213257	5129.088867
722.162170	5110.385254
722.111145	4900.939941
722.060120	5126.396484
722.009033	5186.517090
721.958008	5139.854004
721.906921	4981.379883
721.855835	5008.459473
721.804810	5220.995605
721.753723	5118.474121
721.702637	5173.452637
721.651611	5121.760742
721.600464	5100.553223
721.549438	5203.734375
721.498352	4959.178711
721.447266	5100.411621
721.396179	5140.111328
721.345093	5182.333496
721.294006	5181.426270
721.242920	5084.160156
721.191895	5141.581543
721.140747	5100.123047
721.089661	5233.553223
721.038635	5235.170410
720.987488	5219.051758
720.936401	5230.802734
720.885315	5265.343262
720.834229	5325.192871
720.783142	5291.347168
720.731995	5080.321777
720.680908	5066.777344
720.629761	5035.524414
720.578674	5176.319824
720.527527	5190.589844
720.476440	5128.981934
720.425354	5216.584961
720.374207	5218.198730
720.323120	5267.838867
720.272034	5145.604492
720.220886	5260.937988
720.169800	5244.856934
720.118652	5241.411621
720.067566	5192.506836
720.016418	5290.075195
719.965271	5218.457031
719.914185	5273.074219
719.862976	5193.912598
719.811890	5097.115234
719.760742	5149.201660
719.709595	5221.449219
719.658447	5170.093262
719.607300	5244.832520
719.556213	5218.701660
719.505066	5278.281738
719.453918	5305.078125
719.402771	5314.226074
719.351624	5199.923340
719.300476	5261.983398
719.249329	5354.242676
719.198120	5247.546387
719.147034	5294.458984
719.095886	5358.975098
719.044678	5151.666016
718.993530	5399.870117
718.942383	5222.815430
718.891235	5204.291016
718.840027	5384.451660
718.788879	5403.622070
718.737732	5075.848145
718.686584	5338.884766
718.635376	5378.157715
718.584167	5384.751465
718.533020	5333.560059
718.481812	5463.238770
718.430664	5371.868652
718.379456	5378.458008
718.328308	5312.240234
718.277100	5223.454590
718.225952	5267.709961
718.174744	5457.482910
718.123535	5326.068848
718.072388	5297.541992
718.021179	5494.732422
717.969971	5393.469727
717.918762	5292.242676
717.867615	5268.753418
717.816406	5312.937500
717.765198	5479.882812
717.713989	5346.143066
717.662781	5307.631348
717.611572	5366.802734
717.560364	5370.866699
717.509155	5394.957520
717.457947	5356.463379
717.406738	5355.521484
717.355530	5392.112305
717.304321	5368.648438
717.253113	5252.646484
717.201904	5424.279297
717.150635	5423.325195
717.099426	5334.873535
717.048218	5386.424805
716.997009	5175.556152
716.945740	5299.576660
716.894531	5456.030273
716.843323	5377.640137
716.792114	5361.710449
716.740784	5353.276367
716.689575	5512.105469
716.638367	5573.535156
716.587158	5362.928711
716.535889	5416.876953
716.484619	5248.781250
716.433411	5342.638184
716.382141	5493.818848
716.330872	5375.664551
716.279663	5374.718262
716.228394	5411.159180
716.177185	5492.443848
716.125854	5424.203613
716.074646	5490.509766
716.023376	5422.293945
715.972107	5486.086426
715.920837	5392.996094
715.869629	5446.813477
715.818298	5450.832031
715.767090	5315.491699
715.715820	5396.662598
715.664551	5378.298340
715.613281	5486.788086
715.562012	5376.403809
715.510681	5390.374512
715.459412	5486.375000
715.408142	5520.205078
715.356873	5514.262207
715.305603	5418.876465
715.254333	5467.604492
715.203003	5424.417969
715.151733	5597.291016
715.100403	5439.886230
715.049133	5428.998047
714.997864	5450.378418
714.946533	5439.491699
714.895264	5371.543945
714.843994	5437.574219
714.792664	5523.422852
714.741394	5371.183105
714.690063	5422.302246
714.638794	5513.065430
714.587463	5427.825684
714.536194	5521.033691
714.484863	5435.822266
714.433594	5484.406250
714.382263	5347.220215
714.330933	5593.904297
714.279602	5483.980957
714.228271	5517.669434
714.176941	5402.847656
714.125671	5399.419922
714.074341	5480.112305
714.023010	5607.775879
713.971680	5389.143066
713.920349	5526.667969
713.869019	5508.386230
713.817749	5618.650391
713.766357	5511.385254
713.715027	5490.644531
713.663696	5576.146484
713.612366	5525.759277
713.560974	5500.086426
713.509705	5471.953613
713.458313	5631.463379
713.406982	5546.542969
713.355652	5580.115234
713.304321	5497.701172
713.252930	5662.026855
713.201599	5693.094238
713.150269	5512.053223
713.098938	5604.780273
713.047546	5566.810059
712.996216	5432.720215
712.944824	5707.785156
712.893494	5521.971680
712.842102	5449.551270
712.790710	5754.024902
712.739380	5516.583496
712.688049	5710.132324
712.636658	5723.895020
712.585266	5742.575195
712.533875	5554.523438
712.482544	5797.139648
712.431152	5665.727539
712.379761	5603.233398
712.328430	5597.324219
712.277039	5726.653809
712.225647	5669.098633
712.174255	5682.844238
712.122864	5760.480957
712.071472	5803.690918
712.020081	5851.798340
711.968689	5661.633301
711.917297	5631.162598
711.865906	5664.541992
711.814514	5538.338867
711.763123	5687.083984
711.711731	5727.797852
711.660339	5822.476562
711.608948	5563.860840
711.557495	5678.156738
711.506104	5647.724609
711.454712	5612.398926
711.403259	5608.954590
711.351868	5730.514160
711.300476	5624.124512
711.249084	5833.843750
711.197632	5678.478516
711.146240	5635.835449
711.094788	5617.696289
711.043335	5628.944336
710.991943	5804.204102
710.940552	5634.294922
710.889099	5567.225098
710.837708	5664.107910
710.786255	5763.401855
710.734802	5838.202637
710.683411	5536.385254
710.631958	5691.882812
710.580566	5764.210938
710.529053	5709.420410
710.477661	5833.036621
710.426208	5751.376953
710.374817	5625.775391
710.323364	5771.321289
710.271912	5653.086426
710.220398	5676.500488
710.169006	5760.932617
710.117554	5703.777344
710.066101	5714.968262
710.014648	5752.992188
709.963196	5895.894043
709.911682	5694.858887
709.860291	5786.512207
709.808838	5687.964844
709.757324	5845.402344
709.705872	5751.753418
709.654419	5775.101562
709.602966	5815.495605
709.551453	5863.182617
709.500000	5813.434570
709.448547	5627.342285
709.397095	5769.985840
709.345581	5722.713867
709.294067	5707.097168
709.242676	5820.450195
709.191101	5846.180176
709.139648	5781.899902
709.088196	5807.626953
709.036682	5933.039062
708.985168	5662.129883
708.933716	5707.309570
708.882202	5720.878906
708.830750	5860.795410
708.779236	5806.309082
708.727783	5780.989258
708.676270	5736.249512
708.624756	5866.351074
708.573242	5826.466797
708.521790	5890.969238
708.470215	5807.412109
708.418701	5891.305664
708.367249	5785.943359
708.315735	5753.384766
708.264221	5812.991699
708.212708	5816.809082
708.161194	5886.080078
708.109680	5773.539551
708.058167	5862.180176
708.006653	5778.759277
707.955139	5780.155762
