#Wave		#Intensity
750.175598	81.163322
750.125549	95.157005
750.075500	137.114639
750.025452	148.282364
749.975342	184.622009
749.925293	78.311127
749.875244	92.279510
749.825134	61.509178
749.775085	83.861839
749.724976	106.206871
749.674927	103.394302
749.624817	89.406837
749.574707	86.598099
749.524658	78.204285
749.474548	106.116272
749.424438	122.850502
749.374390	111.663208
749.324280	92.106422
749.274170	58.603172
749.224060	92.074982
749.174011	83.690239
749.123901	52.994766
749.073730	64.140610
749.023682	75.282639
748.973572	66.906479
748.923401	52.958580
748.873352	83.604530
748.823181	89.162941
748.773071	94.719444
748.723022	89.132484
748.672852	91.902176
748.622803	72.395409
748.572632	50.111340
748.522522	77.937653
748.472351	55.660244
748.422241	86.258644
748.372131	91.808029
748.322021	89.010757
748.271851	88.995544
748.221741	69.515892
748.171570	83.404816
748.121460	83.390564
748.071289	72.259476
748.021179	94.477013
747.971008	52.786953
747.920837	55.555717
747.870728	55.546223
747.820557	66.644073
747.770386	119.383553
747.720276	58.293633
747.670105	77.711555
747.619934	97.122841
747.569763	63.812668
747.519653	88.767662
747.469482	80.431938
747.419312	74.872108
747.369141	94.267273
747.318970	94.251152
747.268799	94.235039
747.218628	74.820908
747.168457	83.120125
747.118286	116.348274
747.068115	85.861420
747.017944	91.385231
746.967712	88.600822
746.917542	83.049065
746.867371	63.660057
746.817139	63.649166
746.767029	55.337635
746.716797	58.094574
746.666626	66.382439
746.616394	116.149391
746.566223	118.894508
746.516052	124.403198
746.465820	63.572975
746.415649	71.852806
746.365417	93.945282
746.315186	74.590836
746.265015	71.815918
746.214783	69.041946
746.164551	74.552544
746.114319	102.147102
746.064148	93.848839
746.013916	88.313202
745.963745	68.982872
745.913513	82.765282
745.863281	113.093178
745.813049	91.010635
745.762817	93.752472
745.712585	74.437744
745.662354	77.181480
745.612122	85.436295
745.561951	115.732574
745.511658	71.631706
745.461487	104.674561
745.411194	85.377777
745.360962	77.102203
745.310730	74.335815
745.260437	38.537895
745.210205	85.319290
745.159973	90.808205
745.109741	96.295227
745.059509	93.527908
745.009216	57.757339
744.958923	52.247688
744.908691	76.983398
744.858398	82.468079
744.808228	60.466228
744.757935	98.927780
744.707642	60.445503
744.657410	74.170403
744.607117	60.424786
744.556885	79.637199
744.506592	98.843025
744.456299	98.826080
744.406006	82.340950
744.355774	71.349922
744.305481	76.825203
744.255249	79.555321
744.204895	90.512947
744.154602	98.724464
744.104309	65.805023
744.054077	112.397636
744.003784	95.932747
743.953430	82.213966
743.903198	84.939865
743.852905	63.009090
743.802551	115.040337
743.752258	79.418991
743.701965	90.357834
743.651733	95.817627
743.601379	95.801186
743.551086	109.468285
743.500793	62.933464
743.450500	79.337280
743.400146	87.529564
743.349854	62.901077
743.299561	87.499527
743.249207	62.879490
743.198853	60.135277
743.148560	103.852196
743.098267	114.764305
743.047913	68.300362
742.997559	60.094002
742.947266	84.663376
742.896912	95.571274
742.846619	106.475426
742.796265	109.186821
742.745972	100.980469
742.695557	68.218330
742.645264	62.750088
742.594910	87.289482
742.544556	79.092506
742.494202	76.352066
742.443909	84.518127
742.393494	65.422150
742.343201	100.841827
742.292847	68.124672
742.242432	87.184601
742.192078	68.101265
742.141785	59.918823
742.091431	73.524101
742.041016	78.956764
741.990723	62.610126
741.940308	84.373062
741.889954	48.982395
741.839600	84.344070
741.789185	70.728035
741.738831	78.875404
741.688477	92.458725
741.638062	78.848297
741.587769	67.960991
741.537292	84.257141
741.486938	67.937630
741.436584	92.379295
741.386169	97.796562
741.335754	81.483124
741.285400	84.184753
741.234985	76.024773
741.184631	78.726402
741.134277	86.855576
741.083862	108.550804
741.033447	89.539017
740.983093	70.533760
740.932617	89.508224
740.882202	94.916641
740.831848	48.805878
740.781433	121.993706
740.731018	86.736160
740.680603	75.881088
740.630188	92.125473
740.579834	102.946053
740.529358	75.841934
740.478943	64.996193
740.428528	83.938972
740.378113	83.924530
740.327698	78.496536
740.277283	62.245159
740.226868	73.057831
740.176392	105.509819
740.125977	59.508118
740.075562	97.360161
740.025146	59.487637
739.974670	59.477398
739.924255	83.794640
739.873779	97.293152
739.823364	102.680649
739.772949	83.751373
739.722473	89.139343
739.672058	81.021812
739.621582	67.506554
739.571167	86.393509
739.520691	83.679306
739.470276	105.255836
739.419800	99.840904
739.369324	86.334023
739.318848	72.831787
739.268433	89.001297
739.217896	70.110161
739.167480	86.274567
739.117004	53.912315
739.066589	88.939995
739.016113	94.314049
738.965576	94.297806
738.915161	83.506523
738.864685	83.492134
738.814209	86.170586
738.763733	83.463371
738.713257	83.448990
738.662720	102.274681
738.612244	69.965355
738.561768	78.024834
738.511292	94.151672
738.460754	77.997940
738.410278	83.362740
738.359802	61.839115
738.309326	61.828457
738.258850	86.007370
738.208313	75.243477
738.157837	67.170090
738.107361	107.453621
738.056824	77.890442
738.006287	64.449944
737.955811	88.603394
737.905273	93.957092
737.854736	67.100632
737.804260	115.393188
737.753784	75.126793
737.703247	88.527023
737.652710	91.193924
737.602173	85.814774
737.551697	93.843719
737.501160	77.742813
737.450623	88.450699
737.400085	61.636822
737.349609	61.626190
737.299072	93.762802
737.248535	112.495949
737.197998	88.374428
737.147461	50.873466
737.096924	64.250130
737.046387	74.945549
736.995850	90.989609
736.945312	82.946793
736.894775	74.906754
736.844177	82.918167
736.793640	77.555214
736.743042	61.498692
736.692566	85.548630
736.641968	69.496262
736.591431	66.811790
736.540833	77.488297
736.490295	101.518860
736.439758	96.159157
736.389221	56.083157
736.338623	58.743637
736.288086	88.100235
736.237488	69.400322
736.186890	96.076157
736.136353	80.049637
736.085815	80.035812
736.035217	98.693787
735.984619	72.007347
735.934082	93.326736
735.883423	79.980522
735.832886	90.628937
735.782288	63.962315
735.731689	111.914711
735.681152	87.917793
735.630554	77.247742
735.579895	98.540428
735.529358	103.848991
735.478760	79.870033
735.428162	71.870605
735.377563	74.519600
735.326965	103.777222
735.276367	87.796318
735.225769	90.441177
735.175110	77.127670
735.124512	85.091682
735.073914	77.101006
735.023315	82.404068
734.972717	69.101135
734.922058	77.061020
734.871521	100.959045
734.820862	90.316162
734.770264	84.988747
734.719604	66.385971
734.669006	87.614334
734.618408	114.144386
734.567749	92.892151
734.517090	100.836891
734.466492	90.206871
734.415833	58.359058
734.365173	116.697922
734.314575	95.463600
734.263916	98.098396
734.213257	84.827171
734.162659	90.113281
734.112000	71.548164
734.061401	68.886307
734.010742	95.364540
733.960022	63.565357
733.909424	60.906258
733.858826	66.190994
733.808105	100.592896
733.757446	84.695145
733.706848	87.326752
733.656189	68.790985
733.605469	100.523270
733.554810	124.309883
733.504150	87.266296
733.453491	84.607216
733.402832	84.592560
733.352173	68.719559
733.301453	92.491074
733.250793	68.695755
733.200134	84.533981
733.149475	89.801804
733.098755	95.067795
733.048096	87.130386
732.997437	73.916008
732.946716	68.624405
732.896057	87.085114
732.845398	81.793053
732.794678	105.521141
732.744019	87.039864
732.693298	102.847466
732.642639	79.099731
732.591919	105.448029
732.541199	86.979553
732.490540	89.599762
732.439819	76.410088
732.389099	100.106209
732.338379	86.919273
732.287720	84.270744
732.236938	115.852188
732.186279	76.343887
732.135559	78.962746
732.084839	73.685783
732.034119	78.935371
731.983398	84.183128
731.932739	89.429070
731.881958	68.375076
731.831238	81.509995
731.780518	86.753654
731.729797	78.853287
731.679077	86.723572
731.628357	99.846184
731.577576	60.422737
731.526855	89.305077
731.476135	91.915749
731.425354	60.391300
731.374634	81.382851
731.323914	73.494339
731.273193	65.608559
731.222412	73.468834
731.171692	76.079521
731.120911	78.689301
731.070190	83.920685
731.019470	65.551659
730.968689	91.756393
730.917908	91.740471
730.867188	81.241745
730.816406	91.708626
730.765686	89.072922
730.714905	44.528728
730.664124	70.709824
730.613342	73.315979
730.562622	78.539192
730.511841	68.055481
730.461060	107.299629
730.410278	78.498291
730.359558	83.716972
730.308777	75.855331
730.257996	83.687897
730.207214	99.362122
730.156433	112.416557
730.105591	67.960999
730.054871	60.108902
730.004089	73.163345
729.953308	83.600723
729.902527	101.870689
729.851685	88.794914
729.800903	83.557167
729.750122	91.374771
729.699280	73.087112
729.648499	80.903816
729.597717	93.936493
729.546936	86.093491
729.496094	106.946053
729.445312	112.143440
729.394470	93.871216
729.343689	96.461983
729.292908	83.412079
729.242065	91.216103
729.191284	70.354477
729.140442	88.579124
729.089600	83.354095
729.038757	98.965775
728.987976	85.929024
728.937195	98.931366
728.886292	80.693130
728.835449	78.076546
728.784668	98.879768
728.733826	85.854340
728.682983	75.434631
728.632202	67.619286
728.581299	72.808105
728.530457	72.795441
728.479675	93.577850
728.428772	70.171181
728.377991	85.749855
728.327148	75.342827
728.276306	93.512749
728.225403	72.719482
728.174561	75.303505
728.123718	85.675285
728.072876	90.851913
728.022034	98.622055
727.971191	77.845970
727.920288	75.238007
727.869446	77.818871
727.818604	64.837776
727.767761	75.198723
727.716858	90.741287
727.666016	69.988235
727.615112	85.526283
727.564270	64.781357
727.513428	108.813736
727.462524	80.300911
727.411621	106.185944
727.360779	85.451851
727.309875	54.368980
727.258972	82.833542
727.208130	87.995316
727.157227	95.742928
727.106323	54.331116
727.055481	56.908398
727.004578	72.416252
726.953674	80.161171
726.902832	77.561813
726.851868	100.812790
726.801025	93.041748
726.750122	56.848938
726.699219	85.258553
726.648315	85.243690
726.597412	100.724991
726.546509	72.302773
726.495605	98.108093
726.444702	92.928314
726.393799	85.169441
726.342896	67.091499
726.291931	79.979767
726.241028	103.181709
726.190125	92.847351
726.139221	105.724380
726.088318	69.611237
726.037354	82.487816
725.986450	69.586960
725.935547	64.421135
725.884583	92.750259
725.833618	115.917610
725.782715	79.840424
725.731812	84.976601
725.680847	100.409370
725.629883	74.650360
725.578979	56.621426
725.528076	82.344070
725.477112	87.475319
725.426147	108.038895
725.375183	100.304321
725.324219	90.000999
725.273315	71.988235
725.222351	61.693436
725.171448	77.103333
725.120422	110.495499
725.069519	95.060928
725.018555	82.200508
724.967590	89.891113
724.916626	61.628864
724.865662	84.724892
724.814697	97.544968
724.763733	100.094467
724.712769	82.114456
724.661804	123.150177
724.610840	92.346512
724.559875	84.636185
724.508911	84.621407
724.457886	89.734306
724.406921	43.577625
724.355957	69.199432
724.304993	56.374878
724.254028	87.109589
724.203003	94.779175
724.152039	87.079163
724.101013	81.942543
724.050049	81.928230
723.999023	115.191444
723.948059	97.255783
723.897034	71.649635
723.846069	86.987930
723.795044	74.182625
723.744080	99.745407
723.693054	89.499466
723.642029	86.927139
723.591064	86.911949
723.540039	97.119911
723.489075	79.215553
723.438049	94.531067
723.386963	68.970070
723.335999	109.822029
723.284973	66.392410
723.233948	79.146339
723.182922	58.711212
723.131897	68.909805
723.080933	104.622520
723.029846	89.296288
722.978882	71.424538
722.927795	86.714630
722.876770	91.799438
722.825745	81.585228
722.774719	63.727310
722.723694	86.653984
722.672668	112.120834
722.621643	84.075912
722.570557	71.324661
722.519531	94.233955
722.468506	112.042397
722.417419	84.017097
722.366394	68.729233
722.315369	89.077858
722.264343	96.696182
722.213257	91.590874
722.162170	58.506153
722.111145	76.299019
722.060120	76.285660
722.009033	91.526772
721.958008	96.594681
721.906921	88.953209
721.855835	99.101944
721.804810	94.003334
721.753723	83.826134
721.702637	81.271713
721.651611	83.796776
721.600464	99.015213
721.549438	71.075401
721.498352	73.600914
721.447266	91.350655
721.396179	73.575134
721.345093	53.269215
721.294006	63.404625
721.242920	93.822411
721.191895	78.594193
721.140747	98.859245
721.089661	101.376335
721.038635	83.620827
720.987488	103.874336
720.936401	98.789986
720.885315	98.772675
720.834229	65.836906
720.783142	101.269806
720.731995	98.720757
720.680908	83.518303
720.629761	129.051117
720.578674	86.019005
720.527527	53.120071
720.476440	63.227093
720.425354	126.432022
720.374207	60.676731
720.323120	65.721603
720.272034	80.873940
720.220886	65.698555
720.169800	78.319160
720.118652	93.461311
720.067566	80.817230
720.016418	73.227768
719.965271	88.362846
719.914185	58.056828
719.862976	80.760551
719.811890	98.409653
719.760742	93.346626
719.709595	58.016102
719.658447	93.313881
719.607300	93.297508
719.556213	68.070015
719.505066	90.744102
719.453918	88.207947
719.402771	95.751823
719.351624	80.618965
719.300476	88.161522
719.249329	73.035294
719.198120	80.576523
719.147034	98.185402
719.095886	72.996841
719.044678	85.567482
718.993530	88.068710
718.942383	75.474213
718.891235	88.037788
718.840027	75.447716
718.788879	75.434464
718.737732	87.991425
718.686584	103.057564
718.635376	95.499992
718.584167	92.970505
718.533020	65.319153
718.481812	80.378685
718.430664	85.387352
718.379456	82.861397
718.328308	77.825821
718.277100	80.322220
718.225952	95.365875
718.174744	75.275627
718.123535	62.718666
718.072388	75.249176
718.021179	95.298874
717.969971	60.178185
717.918762	77.716492
717.867615	72.689751
717.816406	120.292923
717.765198	105.237808
717.713989	70.146202
717.662781	87.667343
717.611572	117.704025
717.560364	80.124825
717.509155	55.076130
717.457947	87.605713
717.406738	82.585144
717.355530	70.059921
717.304321	62.542503
717.253113	117.559235
717.201904	77.525429
717.150635	72.511032
717.099426	77.498161
717.048218	92.481537
716.997009	99.962456
716.945740	114.936600
716.894531	47.465462
716.843323	102.407455
716.792114	74.919098
716.740784	77.402779
716.689575	89.871284
716.638367	84.863503
716.587158	109.804031
716.535889	82.338531
716.484619	99.786713
716.433411	67.344177
716.382141	119.701912
716.330872	102.227386
716.279663	77.280273
716.228394	97.206451
716.177185	74.761032
716.125854	87.205849
716.074646	87.190491
716.023376	74.721550
715.972107	54.786156
715.920837	79.674919
715.869629	99.576111
715.818298	114.492363
715.767090	79.632835
715.715820	74.642632
715.664551	84.580086
715.613281	106.950089
715.562012	84.550293
715.510681	87.021729
715.459412	74.576912
715.408142	86.991074
715.356873	84.490723
715.305603	67.083755
715.254333	69.556076
715.203003	104.315735
715.151733	101.814079
715.100403	96.830467
715.049133	57.095085
714.997864	96.796341
714.946533	71.964081
714.895264	81.875725
714.843994	89.303230
714.792664	99.208321
714.741394	84.312202
714.690063	74.380005
714.638794	99.155853
714.587463	86.746071
714.536194	76.818687
714.484863	66.894798
714.433594	66.883003
714.382263	74.301346
714.330933	111.432358
714.279602	84.178490
714.228271	81.688240
714.176941	111.373405
714.125671	69.286781
714.074341	76.696831
714.023010	98.946198
713.971680	89.035866
713.920349	108.802414
713.869019	84.059753
713.817749	66.741554
713.766357	106.273354
713.715027	84.015266
713.663696	76.588631
713.612366	91.396103
713.560974	118.546989
713.509705	91.363846
713.458313	91.347717
713.406982	91.331589
713.355652	120.931290
713.304321	88.831795
713.252930	86.348999
713.201599	66.600319
713.150269	108.514694
713.098938	78.905838
713.047546	69.030418
712.996216	113.387085
712.944824	69.006035
712.893494	83.778244
712.842102	96.081596
712.790710	68.969475
712.739380	91.122139
712.688049	76.332085
712.636658	66.471039
712.585266	83.689484
712.533875	100.901840
712.482544	71.356979
712.431152	63.963921
712.379761	108.227509
712.328430	68.859879
712.277039	73.765404
712.225647	71.293953
712.174255	88.487198
712.122864	68.811211
712.071472	61.427719
712.020081	68.786880
711.968689	85.968399
711.917297	68.762558
711.865906	66.295029
711.814514	73.648125
711.763123	73.635101
711.711731	73.622078
711.660339	107.959953
711.608948	103.034454
711.557495	85.846863
711.506104	88.284012
711.454712	88.268394
711.403259	93.155716
711.351868	73.530975
711.300476	71.067368
711.249084	78.405289
711.197632	110.237930
711.146240	90.624039
711.094788	90.608002
711.043335	83.246674
710.991943	78.335945
710.940552	83.217216
710.889099	102.779541
710.837708	95.421249
710.786255	80.726768
710.734802	63.591652
710.683411	78.252792
710.631958	53.789272
710.580566	70.891487
710.529053	68.434830
710.477661	85.528397
710.426208	97.729431
710.374817	85.498108
710.323364	92.810081
710.271912	85.467827
710.220398	80.569679
710.169006	95.201851
710.117554	70.778580
710.066101	102.488754
710.014648	100.030823
709.963196	68.301628
709.911682	102.434296
709.860291	78.031349
709.808838	102.398003
709.757324	70.690849
709.705872	116.984818
709.654419	77.976059
709.602966	92.580162
709.551453	56.025429
709.500000	85.240974
709.448547	104.706062
709.397095	60.864830
709.345581	68.156525
709.294067	65.710716
709.242676	77.865555
709.191101	92.448952
709.139648	82.702820
709.088196	80.256149
709.036682	60.789333
708.985168	102.107971
708.933716	97.228439
708.882202	92.350639
708.830750	106.913353
708.779236	75.311958
708.727783	77.727585
708.676270	82.570908
708.624756	82.556259
708.573242	89.824699
708.521790	82.526970
708.470215	63.097664
708.418701	99.482506
708.367249	89.760971
708.315735	92.170578
708.264221	87.304001
708.212708	75.165108
708.161194	58.182011
708.109680	55.747864
708.058167	104.205765
708.006653	89.649513
707.955139	82.366005
707.903625	104.150284
707.852112	89.601776
707.800598	79.900909
707.749084	116.198868
707.697510	111.337479
707.645935	89.538155
707.594482	120.976021
707.542908	77.410904
707.491333	70.141167
707.439819	91.892792
707.388306	89.458672
707.336792	84.608032
707.285217	67.674408
707.233704	79.744949
707.182129	120.804214
707.130615	79.716621
707.079041	99.024261
707.027466	94.177071
706.975952	96.574707
706.924377	84.487846
706.872803	96.540382
706.821289	72.392418
706.769714	91.680763
706.718201	118.198921
706.666626	84.412796
706.615051	69.929596
706.563477	74.739037
706.511902	91.599312
706.460327	69.892303
706.408813	84.337784
706.357178	93.959679
706.305603	98.760559
706.254028	84.292801
706.202454	89.093689
706.150879	60.187733
706.099304	74.619514
706.047791	79.419548
705.996155	108.280121
705.944580	60.144920
705.893005	79.377174
705.841431	91.387756
705.789795	110.607597
705.738220	57.698044
705.686646	69.706062
705.635010	86.516273
705.583435	88.903679
705.531860	62.461735
705.480225	91.273979
705.428650	93.659256
705.377014	76.834946
705.325439	72.019936
705.273865	84.008301
705.222229	76.793915
705.170654	69.582100
705.119019	95.958221
705.067383	81.549965
705.015808	100.720253
704.964172	76.725578
704.912598	79.109161
704.860962	55.126869
704.809326	103.044922
704.757690	103.026566
704.706055	107.799294
704.654480	93.409416
704.602844	102.971519
704.551208	71.827797
704.499573	90.965668
704.447937	71.802208
704.396301	62.217491
704.344666	69.384071
