#Wave		#Intensity
750.175598	4270.870117
750.125549	4251.278809
750.075500	4261.746582
750.025452	4247.030762
749.975342	4327.428223
749.925293	4312.705566
749.875244	4146.985352
749.825134	4196.603516
749.775085	4304.907715
749.724976	4125.298340
749.674927	4186.072266
749.624817	4210.503418
749.574707	4243.306641
749.524658	4287.270508
749.474548	4144.119629
749.424438	4188.085449
749.374390	4273.909180
749.324280	4315.046387
749.274170	4177.568848
749.224060	4307.993164
749.174011	4237.515625
749.123901	4217.267578
749.073730	4269.533691
749.023682	4399.852051
748.973572	4242.985840
748.923401	4434.584473
748.873352	4269.404785
748.823181	4249.171387
748.773071	4398.882324
748.723022	4367.491699
748.672852	4322.187500
748.622803	4251.837891
748.572632	4334.630859
748.522522	4358.941895
748.472351	4391.593262
748.422241	4304.584473
748.372131	4348.361816
748.322021	4155.689453
748.271851	4257.880859
748.221741	4343.353027
748.171570	4489.959473
748.121460	4380.784180
748.071289	4352.243652
748.021179	4373.729980
747.971008	4300.747559
747.920837	4311.123535
747.870728	4393.706055
747.820557	4365.187012
747.770386	4292.255371
747.720276	4186.038086
747.670105	4418.457031
747.619934	4273.404785
747.569763	4397.525391
747.519653	4258.073730
747.469482	4482.000488
747.419312	4292.667480
747.369141	4297.478516
747.318970	4232.985840
747.268799	4259.978027
747.218628	4514.194824
747.168457	4377.659668
747.118286	4177.457031
747.068115	4331.847168
747.017944	4320.029297
746.967712	4324.827637
746.917542	4390.527344
746.867371	4392.543945
746.817139	4391.792480
746.767029	4407.642578
746.716797	4285.166504
746.666626	4455.921387
746.616394	4258.811035
746.566223	4307.852051
746.516052	4279.469727
746.465820	4372.714844
746.415649	4330.513184
746.365417	4357.402832
746.315186	4298.642090
746.265015	4389.057617
746.214783	4349.642578
746.164551	4401.361328
746.114319	4494.472656
746.064148	4281.163086
746.013916	4335.625977
745.963745	4287.975586
745.913513	4323.106445
745.863281	4220.306641
745.813049	4396.089355
745.762817	4417.395996
745.712585	4367.014648
745.662354	4338.701660
745.612122	4277.326660
745.561951	4246.283203
745.511658	4410.859863
745.461487	4275.129395
745.411194	4343.250000
745.360962	4279.172363
745.310730	4424.357910
745.260437	4453.879395
745.210205	4389.814941
745.159973	4185.432617
745.109741	4366.300781
745.059509	4228.011719
745.009216	4351.053223
744.958923	4320.058594
744.908691	4407.299805
744.858398	4401.046387
744.808228	4469.003906
744.757935	4435.262207
744.707642	4396.036621
744.657410	4354.077148
744.607117	4268.187012
744.556885	4404.760742
744.506592	4395.769043
744.456299	4400.505859
744.406006	4311.920898
744.355774	4473.091309
744.305481	4340.624023
744.255249	4378.285645
744.204895	4344.621582
744.154602	4349.360840
744.104309	4433.613281
744.054077	4356.093750
744.003784	4349.864746
743.953430	4395.706543
743.903198	4277.133301
743.852905	4380.501465
743.802551	4418.096680
743.752258	4337.919922
743.701965	4367.295410
743.651733	4407.610840
743.601379	4417.803223
743.551086	4397.888184
743.500793	4416.287598
743.450500	4470.245117
743.400146	4526.919434
743.349854	4351.113770
743.299561	4282.007812
743.249207	4355.088379
743.198853	4384.408203
743.148560	4416.451172
743.098267	4546.852539
743.047913	4354.831055
742.997559	4463.345703
742.947266	4517.200684
742.896912	4393.548340
742.846619	4368.222656
742.796265	4411.147461
742.745972	4492.266113
742.695557	4398.717773
742.645264	4327.027832
742.594910	4348.107422
742.544556	4407.361816
742.494202	4357.521484
742.443909	4337.688477
742.393494	4443.254395
742.343201	4494.274902
742.292847	4319.104004
742.242432	4522.701172
742.192078	4426.582520
742.141785	4567.448242
742.091431	4495.862793
742.041016	4462.418457
741.990723	4475.263184
741.940308	4463.607422
741.889954	4462.840332
741.839600	4527.372070
741.789185	4668.050293
741.738831	4327.268066
741.688477	4484.248047
741.638062	4483.477539
741.587769	4477.270020
741.537292	4433.012695
741.486938	4557.256348
741.436584	4453.225586
741.386169	4384.545898
741.335754	4508.732910
741.285400	4603.004883
741.234985	4327.981445
741.184631	4587.849121
741.134277	4597.916992
741.083862	4456.010742
741.033447	4550.209961
740.983093	4457.190918
740.932617	4437.437988
740.882202	4520.744141
740.831848	4571.483887
740.781433	4375.507812
740.731018	4556.358887
740.680603	4411.943359
740.630188	4508.729004
740.579834	4556.717285
740.529358	4545.099121
740.478943	4606.604980
740.428528	4532.704590
740.378113	4613.141602
740.327698	4493.250000
740.277283	4527.658691
740.226868	4394.293457
740.176392	4588.324707
740.125977	4598.354492
740.075562	4513.725586
740.025146	4523.764648
739.974670	4547.317383
739.924255	4527.613281
739.873779	4464.674805
739.823364	4488.225098
739.772949	4546.889160
739.722473	4438.058594
739.672058	4607.440430
739.621582	4436.530762
739.571167	4554.558105
739.520691	4567.270508
739.470276	4547.591797
739.419800	4557.602539
739.369324	4456.994141
739.318848	4515.570801
739.268433	4501.308105
739.217896	4551.767090
739.167480	4599.512695
739.117004	4388.462402
739.066589	4428.133789
739.016113	4508.211426
738.965576	4650.229004
738.915161	4509.352051
738.864685	4452.016113
738.814209	4413.549316
738.763733	4571.638672
738.713257	4659.683594
738.662720	4543.148926
738.612244	4545.057129
738.561768	4514.678223
738.511292	4473.549316
738.460754	4650.291016
738.410278	4636.043945
738.359802	4613.735840
738.309326	4548.423828
738.258850	4477.758789
738.208313	4600.601074
738.157837	4610.555176
738.107361	4550.660645
738.056824	4450.499023
738.006287	4584.002441
737.955811	4556.362305
737.905273	4646.849121
737.854736	4597.735352
737.804260	4623.778320
737.753784	4478.093262
737.703247	4606.087891
737.652710	4658.937012
737.602173	4566.955078
737.551697	4563.485840
737.501160	4613.633789
737.450623	4618.198730
737.400085	4563.804688
737.349609	4608.567383
737.299072	4739.040039
737.248535	4537.336914
737.197998	4678.488281
737.147461	4431.346680
737.096924	4556.405273
737.046387	4748.335938
736.995850	4616.384277
736.945312	4607.560547
736.894775	4537.208984
736.844177	4571.198242
736.793640	4677.381836
736.743042	4719.355957
736.692566	4600.912109
736.641968	4739.110352
736.591431	4529.839355
736.540833	4614.561523
736.490295	4587.049316
736.439758	4631.666016
736.389221	4534.723633
736.338623	4816.978027
736.288086	4594.561035
736.237488	4596.436523
736.186890	4587.636719
736.136353	4570.834473
736.085815	4634.073242
736.035217	4657.279785
735.984619	4619.138184
735.934082	4485.016113
735.883423	4686.858887
735.832886	4648.731445
735.782288	4663.918457
735.731689	4628.472656
735.681152	4656.979004
735.630554	4616.218262
735.579895	4671.349121
735.529358	4763.739746
735.478760	4704.345215
735.428162	4711.517578
735.377563	4612.230957
735.326965	4693.923340
735.276367	4661.186035
735.225769	4748.161621
735.175110	4670.213379
735.124512	4730.565430
735.073914	4649.988281
735.023315	4654.500488
734.972717	4698.877441
734.922058	4796.384277
734.871521	4715.850098
734.820862	4669.876953
734.770264	4727.499023
734.719604	4795.722656
734.669006	4699.313965
734.618408	4727.701172
734.567749	4665.839844
734.517090	4930.393066
734.466492	4735.860840
734.415833	4772.179199
734.365173	4617.524414
734.314575	4916.375488
734.263916	4729.933105
734.213257	4832.498047
734.162659	4656.736328
734.112000	4724.828613
734.061401	4827.340332
734.010742	4670.213379
733.960022	4685.296387
733.909424	4591.802246
733.858826	4937.848145
733.808105	4690.805664
733.757446	4708.520996
733.706848	4792.386230
733.656189	4696.307617
733.605469	4714.012207
733.554810	4752.869141
733.504150	4715.024414
733.453491	4843.762695
733.402832	4747.757812
733.352173	4712.575684
733.301453	4701.189453
733.250793	4615.826660
733.200134	4694.277832
733.149475	4785.907715
733.098755	4692.651855
733.048096	4781.609863
732.997437	4691.026367
732.946716	4848.578125
732.896057	4863.571777
732.845398	4786.212891
732.794678	4790.660156
732.744019	4832.031250
732.693298	4773.177246
732.642639	4788.170410
732.591919	4821.611328
732.541199	4678.445312
732.490540	4904.269531
732.439819	4855.992676
732.389099	4810.366699
732.338379	4680.471191
732.287720	4771.831055
732.236938	4865.791992
732.186279	4899.171387
732.135559	4716.708008
732.084839	4736.943359
732.034119	4849.262695
731.983398	4822.114746
731.932739	4879.144531
731.881958	4788.885254
731.831238	4835.383301
731.780518	4787.224609
731.729797	4844.220215
731.679077	4822.355957
731.628357	4821.519531
731.577576	4765.514648
731.526855	4801.460938
731.476135	4892.543945
731.425354	4954.712402
731.374634	4801.587891
731.323914	4714.136719
731.273193	4920.642090
731.222412	4720.372559
731.171692	4911.064453
731.120911	4773.817383
731.070190	4772.988770
731.019470	4622.703125
730.968689	4844.737793
730.917908	4864.866211
730.867188	4801.125000
730.816406	4768.848633
730.765686	4718.245117
730.714905	5008.172363
730.664124	4813.505859
730.613342	4807.433105
730.562622	4806.598633
730.511841	4795.293945
730.461060	4875.590332
730.410278	4937.542480
730.359558	4915.755859
730.308777	4857.356934
730.257996	4780.671387
730.207214	4821.677734
730.156433	4833.912109
730.105591	4833.072754
730.054871	4740.763184
730.004089	4993.398438
729.953308	4898.479980
729.902527	4834.939453
729.851685	4810.595215
729.800903	4937.706055
729.750122	4678.388184
729.699280	4922.939453
729.648499	4796.813477
729.597717	4858.604492
729.546936	4941.244629
729.496094	4825.614746
729.445312	4720.456543
729.394470	4826.544922
729.343689	4875.240723
729.292908	4895.246094
729.242065	4795.360840
729.191284	4789.315918
729.140442	4788.482910
729.089600	4928.310547
729.038757	4752.961426
728.987976	4785.985840
728.937195	4845.033203
728.886292	4812.955078
728.835449	4924.027832
728.784668	4884.140137
728.733826	4966.543457
728.682983	4872.036621
728.632202	4949.211426
728.581299	4857.340332
728.530457	4986.487305
728.479675	4793.265625
728.428772	4872.998535
728.377991	4963.097656
728.327148	4912.871582
728.276306	4784.735840
728.225403	5025.436035
728.174561	5053.125000
728.123718	4841.951660
728.072876	4799.576660
728.022034	4951.865234
727.971191	4958.788086
727.920288	4921.603516
727.869446	4887.025391
727.818604	4982.134766
727.767761	4849.021484
727.716858	4902.622070
727.666016	5033.968750
727.615112	5012.358398
727.564270	4827.506836
727.513428	5057.248047
727.462524	4950.162598
727.411621	4889.733398
727.360779	5033.891113
727.309875	5004.535156
727.258972	5026.960938
727.208130	5002.792480
727.157227	4913.940918
727.106323	5078.665527
727.055481	5031.219727
727.004578	5133.794922
726.953674	4977.750000
726.902832	5064.786133
726.851868	4901.052734
726.801025	4920.874512
726.750122	5168.085449
726.699219	4921.743652
726.648315	5109.455078
726.597412	4974.265137
726.546509	5089.599121
726.495605	4941.549805
726.444702	5082.662598
726.393799	4924.342285
726.342896	4938.966309
726.291931	4987.125488
726.241028	5159.085449
726.190125	4972.491211
726.139221	5007.725586
726.088318	5073.885254
726.037354	5073.000977
725.986450	4948.406250
725.935547	4947.543457
725.884583	5047.160156
725.833618	5025.672363
725.782715	5084.032227
725.731812	4956.968262
725.680847	5025.617676
725.629883	5009.296387
725.578979	5095.928223
725.528076	4971.523438
725.477112	5094.150879
725.426147	5100.979004
725.375183	5020.359863
725.324219	5024.626953
725.273315	5095.738770
725.222351	5056.291016
725.171448	5106.811035
725.120422	5069.944336
725.069519	5210.366699
725.018555	5006.524902
724.967590	5175.159668
724.916626	5012.480957
724.865662	4998.768555
724.814697	5205.820801
724.763733	5168.980957
724.712769	4919.168945
724.661804	5113.297852
724.610840	5138.057129
724.559875	5060.218262
724.508911	5105.491699
724.457886	5043.067871
724.406921	5121.652344
724.355957	5230.964355
724.304993	5096.801270
724.254028	5154.838379
724.203003	5182.115234
724.152039	4932.778809
724.101013	5075.316406
724.050049	4997.622070
723.999023	5140.098145
723.948059	5123.844238
723.897034	5105.036621
723.846069	5078.560059
723.795044	5197.899414
723.744080	4931.003418
723.693054	5119.369141
723.642029	5075.011230
723.591064	5097.130371
723.540039	5083.460449
723.489075	5069.795410
723.438049	5010.146484
723.386963	5221.290039
723.335999	5072.245117
723.284973	5056.037109
723.233948	5037.281738
723.182922	5130.849121
723.131897	4997.236816
723.080933	5095.882324
723.029846	5276.135254
722.978882	5091.549316
722.927795	5149.318848
722.876770	5003.069336
722.825745	5297.940918
722.774719	5072.693848
722.723694	5122.779785
722.672668	5104.045898
722.621643	5187.229004
722.570557	5109.902344
722.519531	5101.368164
722.468506	5003.711426
722.417419	5206.513672
722.366394	5167.419922
722.315369	5214.872559
722.264343	5145.254395
722.213257	5205.414551
722.162170	5118.016602
722.111145	5183.246582
722.060120	5395.938965
722.009033	5082.278320
721.958008	5137.312012
721.906921	5194.867676
721.855835	5160.924316
721.804810	5271.808594
721.753723	5181.979004
721.702637	4949.955078
721.651611	5172.546387
721.600464	5202.106934
721.549438	5117.428711
721.498352	5159.677734
721.447266	5082.648926
721.396179	5211.149414
721.345093	5141.747559
721.294006	5239.758301
721.242920	5297.162598
721.191895	5052.846191
721.140747	5211.656738
721.089661	5208.208984
721.038635	5121.142090
720.987488	5234.252930
720.936401	5119.347656
720.885315	5184.298828
720.834229	5178.326172
720.783142	5230.585449
720.731995	5201.824219
720.680908	5142.703125
720.629761	5265.791992
720.578674	5398.957520
720.527527	5279.123047
720.476440	5139.098145
720.425354	5284.858398
720.374207	5069.035156
720.323120	5252.672363
720.272034	5264.388184
720.220886	5177.551758
720.169800	5232.225098
720.118652	5254.041504
720.067566	5245.543457
720.016418	5267.349121
719.965271	5251.277344
719.914185	5202.396484
719.862976	5196.436523
719.811890	5205.618164
719.760742	5300.574707
719.709595	5317.301758
719.658447	5291.148926
719.607300	5043.108398
719.556213	5274.166016
719.505066	5200.141113
719.453918	5282.395996
719.402771	5306.666992
719.351624	5439.260742
719.300476	5254.426758
719.249329	5271.133789
719.198120	5287.834473
719.147034	5291.941406
719.095886	5346.389648
719.044678	5368.101074
718.993530	5269.024902
718.942383	5275.647461
718.891235	5450.796875
718.840027	5419.660645
718.788879	5257.782227
718.737732	5221.662598
718.686584	5313.748535
718.635376	5247.473633
718.584167	5231.475586
718.533020	5383.805664
718.481812	5219.590820
718.430664	5268.901855
718.379456	5300.618652
718.328308	5352.408203
718.277100	5369.038574
718.225952	5363.075684
718.174744	5364.642578
718.123535	5333.595215
718.072388	5277.475586
718.021179	5276.547852
717.969971	5390.962402
717.918762	5349.903320
717.867615	5439.198242
717.816406	5435.736328
717.765198	5484.894043
717.713989	5453.867676
717.662781	5385.279785
717.611572	5366.802734
717.560364	5395.905762
717.509155	5492.592285
717.457947	5429.051270
717.406738	5425.593750
717.355530	5389.609863
717.304321	5363.645020
717.253113	5322.681641
717.201904	5336.750488
717.150635	5410.823730
717.099426	5272.375000
717.048218	5373.927246
716.997009	5452.952148
716.945740	5387.028809
716.894531	5408.564453
716.843323	5649.894043
716.792114	5396.672363
716.740784	5383.238770
716.689575	5482.148438
716.638367	5318.944824
716.587158	5313.017578
716.535889	5469.274414
716.484619	5488.269043
716.433411	5370.074707
716.382141	5451.424316
716.330872	5467.918457
716.279663	5384.689941
716.228394	5373.771973
716.177185	5504.903809
716.125854	5441.645020
716.074646	5375.916504
716.023376	5270.359863
715.972107	5339.159668
715.920837	5298.382324
715.869629	5514.027344
715.818298	5555.368652
715.767090	5298.071777
715.715820	5476.281250
715.664551	5328.545410
715.613281	5464.403320
715.562012	5431.112793
715.510681	5375.456543
715.459412	5446.600586
715.408142	5415.815430
715.356873	5437.226562
715.305603	5500.867676
715.254333	5425.374023
715.203003	5488.994629
715.151733	5346.480957
715.100403	5420.023438
715.049133	5438.927246
714.997864	5437.968750
714.946533	5531.308105
714.895264	5515.446777
714.843994	5380.519531
714.792664	5295.244141
714.741394	5346.385742
714.690063	5563.624512
714.638794	5666.756836
714.587463	5574.054688
714.536194	5545.813965
714.484863	5529.970215
714.433594	5437.340820
714.382263	5488.392578
714.330933	5606.285645
714.279602	5357.713379
714.228271	5626.586914
714.176941	5499.371094
714.125671	5671.618164
714.074341	5430.630859
714.023010	5662.196289
713.971680	5495.491699
713.920349	5583.541992
713.869019	5533.109863
713.817749	5618.650391
713.766357	5560.814941
713.715027	5418.984375
713.663696	5581.087891
713.612366	5634.446289
713.560974	5472.919434
713.509705	5541.093750
713.458313	5648.745117
713.406982	5462.616211
713.355652	5449.312012
713.304321	5702.507812
713.252930	5565.809570
713.201599	5419.292969
713.150269	5462.728027
713.098938	5619.575195
713.047546	5416.422363
712.996216	5669.354004
712.944824	5626.456543
712.893494	5549.076660
712.842102	5565.341797
712.790710	5470.757324
712.739380	5580.615234
712.688049	5587.016113
712.636658	5586.029297
712.585266	5683.500488
712.533875	5500.380859
712.482544	5622.437988
712.431152	5508.277832
712.379761	5561.417969
712.328430	5523.545898
712.277039	5650.429688
712.225647	5705.974609
712.174255	5621.395020
712.122864	5625.316406
712.071472	5484.266602
712.020081	5574.194336
711.968689	5568.296387
711.917297	5736.762207
711.865906	5603.157715
711.814514	5575.163086
711.763123	5760.719238
711.711731	5602.640137
711.660339	5719.423828
711.608948	5725.771973
711.557495	5749.287109
711.506104	5647.724609
711.454712	5744.801270
711.403259	5729.076172
711.351868	5676.591309
711.300476	5692.741211
711.249084	5779.939941
711.197632	5565.790527
711.146240	5799.938477
711.094788	5715.650879
711.043335	5523.661621
710.991943	5684.251953
710.940552	5710.169434
710.889099	5797.255371
710.837708	5749.742188
710.786255	5665.551270
710.734802	5781.948730
710.683411	5634.201172
710.631958	5735.892090
710.580566	5637.095215
710.529053	5848.733887
710.477661	5676.641602
710.426208	5609.669434
710.374817	5823.642578
710.323364	5724.916504
710.271912	5880.186523
710.220398	5688.708008
710.169006	5680.376953
710.117554	5659.845703
710.066101	5768.652832
710.014648	5731.034180
709.963196	5583.658203
709.911682	5755.831543
709.860291	5637.765137
709.808838	5726.973633
709.757324	5660.143555
709.705872	5934.542480
709.654419	5663.011230
709.602966	5757.023926
709.551453	5687.798828
709.500000	5849.966309
709.448547	5717.437988
709.397095	5711.555664
709.345581	5810.343750
709.294067	5660.855957
709.242676	5669.585938
709.191101	5838.881348
709.139648	5735.683594
709.088196	5829.515137
709.036682	5799.302246
708.985168	5844.465820
708.933716	5768.077148
708.882202	5796.217773
708.830750	5817.058105
708.779236	5993.374023
708.727783	5856.287598
708.676270	5894.105957
708.624756	5885.775879
708.573242	5739.069824
708.521790	5791.451660
708.470215	5688.497070
708.418701	5638.959961
708.367249	5880.556152
708.315735	5760.661133
708.264221	5834.817383
708.212708	5799.836426
708.161194	5820.625488
708.109680	5885.035156
708.058167	5753.127930
708.006653	5912.021973
707.955139	5930.352539
