#Wave		#Intensity
900.309937	94.709656
900.267273	61.561275
900.224670	66.286110
900.182007	94.679237
900.139404	137.262848
900.096802	118.311043
900.054199	94.633629
900.011536	85.156593
899.968872	231.777939
899.926270	108.776260
899.883545	99.301506
899.840942	52.006721
899.798340	70.906868
899.755615	56.716385
899.713013	99.237740
899.670349	61.423023
899.627625	66.137245
899.584961	103.913277
899.542358	89.728874
899.499695	113.323532
899.456970	108.584282
899.414307	80.245064
899.371643	94.390800
899.328979	84.938080
899.286255	99.078514
899.243591	66.041740
899.200867	66.031136
899.158203	56.589031
899.115540	56.579945
899.072815	65.999336
899.030151	113.123558
898.987427	84.829048
898.944763	61.255589
898.902039	94.224236
898.859253	65.946381
898.816589	117.742485
898.773865	89.469925
898.731140	80.039185
898.688416	80.026337
898.645691	70.600136
898.603027	75.294724
898.560242	75.282639
898.517517	84.679375
898.474792	70.554817
898.432007	61.137691
898.389282	98.745033
898.346558	84.625015
898.303772	89.312065
898.261047	51.698685
898.218262	75.186020
898.175598	89.269066
898.132812	98.649971
898.090027	79.846680
898.047241	84.529976
898.004517	136.165329
897.961731	70.419037
897.919006	28.163094
897.876160	122.020485
897.833374	61.000450
897.790588	107.906555
897.747864	75.053383
897.705017	65.661171
897.662292	70.339958
897.619507	84.394409
897.576660	135.946945
897.533875	84.367317
897.491089	84.353783
897.448303	121.824791
897.405457	74.957069
897.362671	51.524715
897.319885	112.399521
897.277039	88.968674
897.234192	51.499916
897.191406	93.621185
897.148560	102.966774
897.105713	60.834240
897.062927	88.897316
897.020081	56.136662
896.977234	93.546089
896.934448	56.118649
896.891541	56.109642
896.848755	60.775692
896.805847	88.811760
896.763062	84.123955
896.720154	84.110458
896.677307	37.376427
896.634521	56.055645
896.591614	135.446075
896.548767	88.726288
896.505920	88.712051
896.463013	79.361206
896.420166	121.356491
896.377319	88.669357
896.334351	111.985428
896.291565	74.644974
896.248657	51.310188
896.205750	60.629581
896.162903	37.304527
896.119995	97.908669
896.077087	79.246681
896.034241	116.520546
895.991333	60.580963
895.948364	111.823830
895.905518	93.171577
895.862610	88.498795
895.819641	60.542095
895.776794	55.876045
895.733887	60.522671
895.690918	74.477493
895.648010	83.773735
895.605042	60.493549
895.562134	83.746857
895.519226	32.563000
895.476318	88.371101
895.433411	93.007294
895.390442	83.693138
895.347534	74.381966
895.304565	60.425652
895.261658	83.652863
895.218689	83.639442
895.175720	32.521233
895.132751	111.483490
895.089783	51.088402
895.046814	74.298485
895.003906	65.000748
894.960938	83.558983
894.917908	111.394104
894.875000	97.454208
894.831970	60.319118
894.789062	60.309444
894.746033	60.299770
894.703064	125.217896
894.660095	55.643471
894.617065	101.996674
894.574097	83.438438
894.531128	111.233406
894.488159	88.045654
894.445190	23.166193
894.402100	88.017418
894.359131	83.371544
894.316101	97.251205
894.273071	87.975075
894.230103	92.590485
894.187073	46.287819
894.144104	115.700989
894.101074	87.918648
894.058044	64.771774
894.015015	69.387199
893.971985	64.750999
893.928955	110.983910
893.885864	50.859467
893.842896	60.097004
893.799805	87.820000
893.756836	101.670006
893.713806	97.033081
893.670715	50.818699
893.627686	101.621101
893.584656	78.512802
893.541565	96.970848
893.498474	83.104546
893.455444	73.858864
893.412354	83.077896
893.369324	92.293968
893.326233	73.823334
893.283203	106.104027
893.240112	55.349747
893.197021	78.399567
893.153931	73.775993
893.110840	92.205208
893.067749	110.628510
893.024658	96.784424
892.981567	73.728691
892.938477	73.716866
892.895386	92.131310
892.852295	96.722359
892.809204	69.076324
892.766052	73.669594
892.722961	46.036118
892.679810	73.645973
892.636719	82.838440
892.593628	101.230743
892.550537	32.204620
892.507446	110.398132
892.464233	82.785324
892.421143	128.756516
892.377991	78.161072
892.334900	59.760647
892.291748	82.732246
892.248596	105.696472
892.205444	82.705719
892.162292	91.880508
892.119202	45.932888
892.076050	110.221260
892.032837	114.795403
891.989685	50.501881
891.946594	91.806885
891.903381	100.971382
891.860229	64.244209
891.817078	110.115280
891.773926	96.335426
891.730713	87.146645
891.687561	59.617096
891.644409	45.851952
891.601257	50.429062
891.557983	36.669804
891.514832	105.408783
891.471680	41.240303
891.428467	45.815212
891.385315	13.742360
891.342102	96.181099
891.298889	59.531136
891.255676	36.628674
891.212463	100.712700
891.169250	77.810974
891.126038	109.833183
891.082886	41.180840
891.039612	50.324070
890.996399	54.890186
890.953186	64.028290
890.909973	64.018021
890.866760	118.871559
890.823486	77.711250
890.780273	77.698792
890.737061	77.686340
890.693787	77.673889
890.650574	86.798080
890.607300	127.892456
890.564087	59.369122
890.520813	95.888596
890.477600	95.873222
890.434326	73.034561
890.391113	59.331066
890.347839	100.390327
890.304565	45.624653
890.261292	72.987747
890.218018	109.464066
890.174744	31.921904
890.131531	109.428986
890.088196	72.940964
890.044922	54.696953
890.001648	45.573490
889.958374	104.802223
889.915100	100.229538
889.871765	77.437683
889.828552	113.860695
889.785217	81.966560
889.741943	68.294525
889.698669	40.970146
889.655273	72.824142
889.612000	91.015587
889.568726	54.600601
889.525391	118.282341
889.482117	63.680286
889.438782	104.600845
889.395447	59.112743
889.352112	90.928108
889.308838	63.639473
889.265503	113.623703
889.222107	59.074856
889.178772	77.239357
889.135498	86.312508
889.092163	99.924774
889.048767	81.743538
889.005493	81.730438
888.962097	72.637634
888.918762	95.321617
888.875366	95.306343
888.832031	72.602715
888.788696	81.664970
888.745300	68.043236
888.701965	95.245262
888.658630	81.625717
888.615295	13.602105
888.571899	95.199478
888.528564	72.521317
888.485107	77.041550
888.441711	86.091461
888.398315	77.016861
888.355042	90.593552
888.311646	90.579033
888.268188	76.979843
888.224792	131.297516
888.181458	99.589050
888.138062	81.468895
888.094604	81.455833
888.051270	90.491982
888.007812	85.953606
887.964417	99.509285
887.921021	40.701820
887.877625	76.868896
887.834229	67.814629
887.790771	99.445518
887.747314	90.390533
887.703918	94.894852
887.660522	117.470039
887.617004	63.242962
887.573608	58.716198
887.530151	76.770416
887.486755	90.303665
887.443298	85.774734
887.399902	99.302200
887.356445	63.182186
887.312988	94.758095
887.269531	72.185074
887.226013	72.173508
887.182617	81.182190
887.139160	108.225578
887.095703	99.190880
887.052185	90.159081
887.008789	103.666328
886.965271	72.104156
886.921814	58.575237
886.878296	85.596245
886.834839	112.608597
886.791382	72.057953
886.747925	67.543510
886.704407	94.545761
886.660950	54.017494
886.617371	63.010315
886.573975	81.000282
886.530396	98.984482
886.486938	76.475754
886.443420	71.965652
886.399902	80.948387
886.356384	94.424652
886.312866	58.443989
886.269409	94.394394
886.225891	62.919518
886.182312	71.896500
886.138855	112.320282
886.095276	44.920914
886.051758	58.387833
886.008301	89.813042
885.964722	103.268456
885.921204	103.251907
885.877686	44.884941
885.834045	31.414427
885.790527	112.176407
885.747009	44.863373
885.703430	71.769897
885.659912	103.152702
885.616333	76.231087
885.572815	67.251945
885.529236	116.551369
885.485718	112.050667
885.442139	62.738323
885.398560	53.767090
885.354980	44.798729
885.311340	67.187332
885.267822	53.741253
885.224304	53.732643
885.180664	111.925079
885.137146	31.334002
885.093506	26.853413
885.049927	98.446739
885.006287	26.844810
884.962708	107.362038
884.919128	120.762947
884.875549	120.743599
884.831970	102.839180
884.788269	67.058289
884.744690	98.336403
884.701050	67.036804
884.657532	40.215641
884.613892	71.483017
884.570251	40.202755
884.526611	49.128830
884.482971	58.052044
884.439331	35.718613
884.395752	147.315674
884.352112	71.414337
884.308533	53.552174
884.264832	58.005562
884.221252	26.767509
884.177551	89.210739
884.133911	124.875031
884.090271	40.131973
884.046570	49.042332
884.002930	93.611275
883.959290	53.483589
883.915649	80.212532
883.872009	89.110756
883.828369	75.732010
883.784668	80.173988
883.741028	80.161148
883.697327	93.506355
883.653625	80.135468
883.609924	80.122635
883.566345	57.857079
883.522644	80.096970
883.478882	88.982376
883.435181	111.210152
883.391541	66.715401
883.347900	53.363773
883.304138	93.371643
883.260498	62.237793
883.216736	106.676270
883.173035	53.329590
883.129333	53.321049
883.085571	57.755215
883.041870	84.397949
882.998169	35.530285
882.954468	115.454933
882.910767	93.237129
882.867004	75.465584
882.823303	57.699734
882.779541	53.252762
882.735840	88.740387
882.692139	88.726173
882.648376	84.276360
882.604614	88.697754
882.560852	53.210125
882.517151	75.368935
882.473389	66.491356
882.429688	88.640938
882.385864	66.470055
882.342163	44.306271
882.298401	110.747940
882.254578	115.159409
882.210876	57.570480
882.167114	101.839149
882.123352	79.687439
882.079590	97.380157
882.035828	88.513237
881.992065	70.799248
881.948242	79.636398
881.904480	88.470711
881.860657	97.302200
881.816895	61.909664
881.773071	97.271034
881.729248	35.365620
881.685486	53.039932
881.641663	66.289299
881.597900	48.604362
881.554077	119.282516
881.510315	123.680573
881.466492	83.912659
881.422668	105.977959
881.378906	30.905289
881.335022	75.043678
881.291199	97.099792
881.247437	114.735924
881.203613	110.305328
881.159790	66.172600
881.115967	79.394402
881.072144	57.331215
881.028259	70.550194
880.984436	44.086811
880.940552	66.119621
880.896729	105.774452
880.852844	105.757515
880.809082	61.682003
880.765198	26.430910
880.721375	61.662243
880.677490	105.689774
880.633667	83.657669
880.589783	92.448929
880.545898	96.835747
880.502014	57.211960
880.458130	74.803658
880.414307	105.588249
880.370361	43.988056
880.326538	8.796203
880.282654	79.153145
880.238770	61.553696
880.194885	74.731804
880.151001	70.324547
880.107056	43.945805
880.063171	65.908150
880.019348	48.324902
879.975403	74.671974
879.931519	70.268250
879.887634	87.821243
879.843689	61.465027
879.799744	92.182770
879.755859	96.556961
879.711914	87.764999
879.668030	100.913582
879.624146	100.897423
879.580200	61.405983
879.536255	52.625271
879.492371	87.694740
879.448425	61.376484
879.404480	83.283318
879.360596	96.417870
879.316650	39.437355
879.272705	21.906134
879.228760	65.707878
879.184814	52.557880
879.140808	113.857170
879.096863	21.892103
879.052979	65.665787
879.008972	43.770184
878.964966	87.526344
878.921082	96.263557
878.877075	96.248138
878.833130	78.735863
878.789124	65.602715
878.745178	74.337837
878.701233	61.209587
878.657166	109.285332
878.613220	69.931412
878.569275	65.550194
878.525269	65.539696
878.481262	87.372269
878.437317	26.207481
878.393311	91.711494
878.349304	65.497719
878.305298	91.682121
878.261292	56.746510
878.217224	65.466255
878.173279	48.000896
878.129272	69.808304
878.085266	26.173922
878.041260	87.232437
877.997253	113.384003
877.953186	61.043144
877.909180	78.471474
877.865112	65.382423
877.821106	100.236992
877.777100	91.506073
877.733093	47.924076
877.689087	95.832802
877.644958	43.553387
877.600952	52.255695
877.556885	30.477606
877.512817	60.945450
877.468750	91.403534
877.424805	69.629631
877.380737	108.778877
877.336609	43.504581
877.292542	56.546898
877.248535	78.283165
877.204468	65.225525
877.160400	65.215073
877.116333	78.245560
877.072266	78.233025
877.028137	78.220497
876.984070	99.932404
876.940002	73.851250
876.895874	73.839424
876.851807	108.569992
876.807739	104.210503
876.763672	47.755497
876.719543	91.154984
876.675476	60.760254
876.631348	65.089844
876.587280	95.449821
876.543152	73.744865
876.499084	125.779915
876.454956	69.384697
876.410828	73.709435
876.366760	73.697632
876.322571	104.027054
876.278442	65.006493
876.234375	77.995300
876.190186	73.650429
876.146118	60.643578
876.101990	90.950798
876.057861	69.284752
876.013672	64.944046
875.969543	60.604736
875.925415	73.579681
875.881287	90.877983
875.837097	56.248791
875.792969	69.218193
875.748840	103.810661
875.704651	73.520775
875.660461	95.129288
875.616394	56.203758
875.572205	82.130798
875.528015	69.151703
875.483887	86.425781
875.439697	120.976715
875.395508	64.798576
875.351318	69.107407
875.307190	60.459297
875.263000	73.403099
875.218750	69.074203
875.174622	107.911163
875.130432	94.946609
875.086243	34.520512
875.042053	73.344337
874.997864	51.764179
874.953674	64.694862
874.909485	38.810699
874.865234	120.725060
874.821045	51.731022
874.776794	47.412510
874.732544	81.881218
874.688416	90.485794
874.644165	38.773415
874.599976	86.149345
874.555725	77.521996
874.511536	73.203491
874.467285	51.664772
874.423035	86.094162
874.378845	55.952244
874.334534	55.943279
874.290344	98.960716
874.246094	73.133163
874.201843	94.627762
874.157593	86.011452
874.113342	85.997681
874.069092	51.590343
874.024841	85.970131
873.980591	81.658539
873.936279	81.645462
873.892090	73.039505
873.847778	64.436295
873.803589	51.540779
873.759277	77.298790
873.714966	94.461159
873.670715	51.516018
873.626465	94.430901
873.582153	85.832527
873.537903	72.945961
873.493652	107.256287
873.449280	38.606079
873.405029	94.355293
873.360718	81.475609
873.316406	64.312546
873.272156	60.015430
873.227844	72.864204
873.183533	42.854431
873.139282	38.562809
873.094910	102.817688
873.050598	72.817528
873.006287	72.805862
872.961975	47.102131
872.917664	34.250607
872.873352	72.770882
872.828979	106.998863
872.784729	68.468300
872.740417	72.735916
872.696045	128.336945
872.651733	42.772129
872.607361	17.106110
872.563049	76.965164
872.518738	81.227997
872.474304	76.940514
872.429932	102.570915
872.385681	98.281380
872.341309	46.996609
872.296936	51.260815
872.252563	51.252602
872.208191	72.596222
872.163879	98.202682
872.119507	89.648956
872.075073	64.024712
872.030762	64.014458
871.986328	98.139771
871.941956	59.727684
871.897644	81.046013
871.853210	81.033028
871.808838	89.548477
871.764465	55.425888
871.720093	51.154163
871.675720	34.097313
871.631287	59.660736
871.586914	29.825590
871.542480	115.023132
871.498108	68.150932
871.453674	89.433777
871.409241	68.129105
871.364868	76.632957
871.320435	55.337162
871.276001	42.560226
871.231628	76.596138
871.187256	51.055908
871.142761	72.317619
871.098389	63.799442
871.053894	63.789219
871.009521	59.527065
870.965088	68.020035
870.920654	110.514847
870.876221	55.248569
870.831726	67.987350
870.787292	50.982342
870.742920	93.452652
870.698425	33.977337
870.653992	46.711353
870.609497	67.932899
870.565063	46.696388
870.520630	97.622261
870.476135	59.412724
870.431641	89.104805
870.387207	50.908875
870.342712	84.834534
870.298279	110.267220
870.253723	80.566986
870.209290	59.355633
870.164856	93.258194
870.120361	38.144966
870.075867	55.089458
870.031311	122.872177
869.986938	63.544392
869.942444	67.769829
869.897949	110.108322
869.853394	46.576828
869.808899	127.007355
869.764404	59.260601
869.719849	97.341103
869.675415	84.630875
869.630859	29.616060
869.586365	59.222630
869.541809	63.442654
869.497314	71.890152
869.452759	109.932030
869.408264	80.322067
869.363770	105.669998
869.319275	59.165718
869.274658	105.636139
869.230164	80.270599
869.185608	105.602287
869.141052	67.574638
869.096558	59.118332
869.052002	50.664738
869.007446	67.542160
868.962952	67.531334
868.918335	75.960579
868.873779	50.632271
868.829285	46.405479
868.784668	63.270058
868.740173	134.954498
868.695557	71.683090
868.651001	80.103554
868.606384	50.583611
868.561829	96.936386
868.517273	71.637154
868.472717	67.412399
868.428162	50.551197
868.383484	71.602722
868.338928	101.069992
868.294312	92.632645
868.249817	67.358398
868.205200	75.766060
868.160583	84.171021
868.115967	50.494518
868.071350	105.180054
868.026794	100.956673
867.982178	75.705368
867.937561	25.231079
867.892944	113.521660
867.848328	50.445988
867.803772	92.469490
867.759094	84.049698
867.714478	88.238037
867.669861	105.028450
867.625244	58.806507
867.580627	88.195625
867.536011	54.588543
867.491394	62.976685
867.446716	16.791092
867.402100	83.942001
867.357422	58.749985
867.312744	54.544811
867.268188	92.291817
867.223511	62.916153
867.178833	62.906067
867.134216	79.668251
867.089478	71.270691
867.044861	62.875828
867.000244	83.820999
866.955505	62.855675
866.910889	67.035309
866.866211	25.134211
866.821533	37.695274
866.776855	92.129234
866.732117	54.431278
866.687500	79.540657
866.642822	41.856792
866.598145	54.405109
866.553467	46.027714
866.508728	33.469337
866.464111	100.391914
866.419373	54.370239
866.374634	71.088142
866.329956	62.714779
866.285217	41.803154
866.240540	75.233612
866.195862	117.011307
866.151123	75.209496
866.106445	79.375076
866.061707	100.247185
866.017029	66.820747
865.972290	112.741936
865.927551	104.373947
865.882812	91.834351
865.838135	70.951530
865.793396	45.902454
865.748596	100.134758
865.703857	58.402580
865.659180	100.102661
865.614380	75.064957
865.569702	70.883316
865.524902	54.196201
865.480225	54.187515
865.435425	58.346432
865.390686	45.836273
865.345947	45.828926
865.301147	79.146370
865.256409	83.298607
865.211609	49.971153
865.166870	24.981571
865.122070	54.118061
865.077332	49.947124
865.032532	16.646372
864.987732	120.666855
864.943054	79.044922
864.898254	33.276737
864.853394	58.224953
864.808594	58.215618
864.763855	95.624611
864.719116	54.040028
864.674255	99.750214
864.629517	70.645073
864.584656	74.788673
864.539856	66.468163
864.495056	62.303913
864.450256	62.293922
864.405457	70.588463
864.360657	70.577148
864.315857	66.414902
864.270996	99.606377
864.226196	58.094402
864.181335	91.276566
864.136536	74.668854
864.091736	37.328442
864.046875	70.497971
864.002014	49.755299
863.957214	99.494637
863.912354	91.188797
863.867554	107.751297
863.822632	53.867012
863.777832	95.287895
863.732971	74.561172
863.688171	62.124352
863.643311	74.537270
863.598450	91.086494
863.553589	86.932259
863.508728	66.223480
863.463867	57.936256
863.419006	57.926968
863.374146	70.328606
863.329224	86.862587
863.284424	53.763454
863.239502	90.969719
863.194641	70.283508
863.149719	70.272240
863.104858	111.590958
863.059937	78.514374
863.015076	57.843422
862.970215	33.048084
862.925354	66.085571
862.880371	61.945286
862.835510	107.354607
862.790588	49.540337
862.745667	53.660091
862.700806	123.811119
862.655884	57.769257
862.611023	70.137131
862.566101	74.250938
862.521118	82.487808
862.476257	41.237289
862.431335	82.461357
862.386353	74.203316
862.341492	90.678398
862.296570	78.300606
862.251587	65.926773
862.206665	41.197628
862.161743	45.310120
862.116821	70.013504
862.071838	90.591179
862.026855	53.522564
861.981934	74.096283
861.937073	37.042198
861.892090	12.345419
861.847107	53.488235
861.802124	102.845497
861.757202	61.697399
861.712280	74.025002
861.667236	45.230247
861.622253	69.890083
861.577332	73.989395
861.532410	73.977524
861.487366	78.074860
861.442383	90.387970
861.397461	119.128670
861.352478	90.358978
861.307434	57.491943
861.262451	90.329994
861.217468	65.684006
861.172485	57.464283
861.127441	16.415733
861.082520	49.239300
861.037537	24.615700
860.992493	53.325462
860.947510	57.418209
860.902466	61.509640
860.857544	61.499775
860.812500	40.993271
