#Wave		#Intensity
3203.165039	9650.313477
3201.841797	9740.591797
3200.517578	9802.320312
3199.192383	9811.382812
3197.868164	9638.127930
3196.542969	9831.372070
3195.217773	9699.519531
3193.891602	9744.280273
3192.565430	9839.721680
3191.239258	9959.524414
3189.913086	9747.050781
3188.585938	9842.423828
3187.258789	9810.177734
3185.930664	9755.436523
3184.603516	9828.238281
3183.275391	9700.398438
3181.946289	9703.824219
3180.618164	9754.098633
3179.289062	9811.842773
3177.959961	9818.985352
3176.629883	9670.688477
3175.299805	9889.427734
3173.969727	9711.231445
3172.639648	9793.245117
3171.308594	9708.700195
3169.977539	9568.076172
3168.646484	9678.117188
3167.314453	9659.094727
3165.982422	9827.012695
3164.650391	9987.377930
3163.317383	9979.507812
3161.984375	9831.536133
3160.651367	9840.511719
3159.317383	9825.208984
3157.983398	9752.042969
3156.649414	9740.498047
3155.315430	9904.355469
3153.980469	9894.645508
3152.645508	9931.566406
3151.309570	9860.320312
3149.974609	9708.942383
3148.638672	9850.251953
3147.301758	9933.731445
3145.965820	9879.312500
3144.628906	9780.216797
3143.291016	9973.518555
3141.954102	9969.391602
3140.616211	9957.820312
3139.278320	9884.845703
3137.939453	9821.206055
3136.600586	9880.354492
3135.261719	10125.433594
3133.922852	10011.583008
3132.583008	9847.596680
3131.243164	10055.348633
3129.902344	10084.646484
3128.562500	9957.903320
3127.221680	10031.778320
3125.879883	10033.209961
3124.539062	10094.039062
3123.197266	10117.724609
3121.855469	10050.485352
3120.512695	10014.810547
3119.169922	10196.128906
3117.827148	10075.147461
3116.483398	10024.659180
3115.139648	9857.438477
3113.795898	10031.213867
3112.452148	9997.439453
3111.107422	10071.094727
3109.762695	10126.200195
3108.417969	10131.299805
3107.072266	9930.965820
3105.726562	10089.680664
3104.380859	10137.329102
3103.034180	10055.493164
3101.687500	9986.637695
3100.340820	9921.509766
3098.993164	9978.391602
3097.645508	10194.155273
3096.297852	10204.763672
3094.949219	10080.540039
3093.601562	10052.391602
3092.251953	10046.408203
3090.903320	10271.134766
3089.553711	10119.328125
3088.204102	10139.159180
3086.854492	10090.736328
3085.503906	10241.486328
3084.153320	10191.217773
3082.801758	9986.147461
3081.451172	10289.761719
3080.099609	10064.495117
3078.747070	10145.083984
3077.395508	10157.500000
3076.042969	10223.300781
3074.689453	10125.255859
3073.336914	10049.335938
3071.983398	10036.003906
3070.629883	10180.861328
3069.275391	10097.624023
3067.920898	10181.728516
3066.566406	10140.803711
3065.211914	10274.475586
3063.856445	10228.035156
3062.500977	10194.471680
3061.144531	10181.125000
3059.789062	10277.942383
3058.431641	10231.540039
3057.075195	10309.949219
3055.717773	10395.661133
3054.360352	10618.907227
3053.002930	10442.258789
3051.644531	10461.874023
3050.286133	10514.473633
3048.927734	10506.572266
3047.568359	10555.471680
3046.209961	10474.290039
3044.849609	10490.208008
3043.490234	10487.808594
3042.129883	10468.934570
3040.769531	10342.090820
3039.408203	10497.080078
3038.046875	10549.556641
3036.685547	10503.250000
3035.324219	10597.753906
3033.961914	10491.129883
3032.599609	10538.074219
3031.236328	10581.341797
3029.873047	10683.045898
3028.509766	10625.809570
3027.146484	10632.505859
3025.782227	10511.411133
3024.417969	10538.205078
3023.053711	10606.955078
3021.688477	10703.036133
3020.323242	10700.583984
3018.958008	10802.068359
3017.591797	10733.963867
3016.225586	10707.809570
3014.859375	10772.776367
3013.492188	10675.575195
3012.125000	10787.873047
3010.757812	10774.474609
3009.390625	10726.491211
3008.022461	10918.782227
3006.653320	10545.062500
3005.285156	10824.630859
3003.916016	10760.306641
3002.546875	10736.017578
3001.176758	10962.624023
2999.807617	11038.265625
2998.436523	10939.421875
2997.066406	10864.241211
2995.695312	10874.461914
2994.324219	10982.738281
2992.953125	11063.730469
2991.581055	10979.510742
2990.208984	11165.716797
2988.835938	11130.496094
2987.463867	11316.580078
2986.090820	11228.750000
2984.716797	11385.715820
2983.343750	11350.473633
2981.969727	11443.912109
2980.594727	11383.306641
2979.220703	11420.540039
2977.845703	11653.336914
2976.469727	11799.121094
2975.094727	11847.091797
2973.718750	11880.562500
2972.341797	11883.258789
2970.965820	12207.928711
2969.588867	12252.141602
2968.211914	12471.709961
2966.833984	12785.171875
2965.456055	12583.441406
2964.078125	12670.885742
2962.699219	13117.752930
2961.321289	13176.136719
2959.941406	13160.466797
2958.562500	13207.981445
2957.182617	13302.395508
2955.802734	13346.245117
2954.421875	13489.286133
2953.041992	13379.777344
2951.660156	13547.985352
2950.279297	13784.614258
2948.897461	13765.219727
2947.515625	13763.851562
2946.132812	14142.573242
2944.750977	14000.641602
2943.368164	14103.648438
2941.984375	14141.802734
2940.600586	14349.110352
2939.216797	14297.223633
2937.833008	14554.766602
2936.448242	14583.785156
2935.063477	14722.469727
2933.678711	15078.603516
2932.292969	14762.410156
2930.907227	15053.684570
2929.521484	14947.818359
2928.134766	15398.754883
2926.748047	15346.723633
2925.360352	15472.434570
2923.973633	15725.513672
2922.585938	15599.872070
2921.197266	15653.677734
2919.809570	15784.578125
2918.420898	15956.658203
2917.031250	15780.879883
2915.642578	15882.980469
2914.252930	15888.273438
2912.863281	15909.685547
2911.472656	15843.327148
2910.082031	15742.976562
2908.691406	15814.529297
2907.299805	15787.609375
2905.908203	15694.495117
2904.516602	15461.884766
2903.124023	15597.818359
2901.731445	15472.623047
2900.338867	15354.634766
2898.945312	15393.981445
2897.551758	15272.489258
2896.158203	15394.012695
2894.764648	15052.889648
2893.370117	15056.552734
2891.974609	15235.165039
2890.580078	15251.276367
2889.184570	15251.318359
2887.789062	15292.390625
2886.392578	15117.630859
2884.996094	15089.169922
2883.599609	14948.407227
2882.202148	15142.789062
2880.804688	14788.245117
2879.407227	15128.656250
2878.009766	15107.343750
2876.611328	15077.136719
2875.212891	14988.194336
2873.813477	14993.624023
2872.414062	15258.850586
2871.014648	14977.787109
2869.614258	15025.899414
2868.213867	15013.528320
2866.813477	14938.938477
2865.413086	14928.369141
2864.011719	14825.400391
2862.610352	14679.839844
2861.208008	14848.726562
2859.805664	14889.679688
2858.403320	14282.613281
2857.000000	14369.824219
2855.597656	14517.328125
2854.193359	14299.295898
2852.790039	13966.074219
2851.385742	13854.666016
2849.981445	13837.270508
2848.576172	13603.641602
2847.170898	13538.464844
2845.765625	13530.009766
2844.360352	13420.597656
2842.954102	13568.003906
2841.546875	13430.304688
2840.140625	13156.379883
2838.733398	13263.041016
2837.326172	13219.271484
2835.917969	12986.264648
2834.509766	13052.215820
2833.101562	13098.688477
2831.693359	12761.583984
2830.284180	12816.935547
2828.875000	12660.254883
2827.464844	12627.288086
2826.054688	12497.210938
2824.644531	12670.856445
2823.233398	12427.863281
2821.822266	12453.210938
2820.411133	12397.389648
2819.000000	12221.652344
2817.587891	12231.156250
2816.174805	12349.961914
2814.762695	12103.850586
2813.349609	12097.512695
2811.936523	12147.553711
2810.522461	12042.569336
2809.108398	11979.896484
2807.694336	11725.349609
2806.279297	11835.272461
2804.864258	11728.694336
2803.449219	11745.319336
2802.033203	11795.354492
2800.617188	11692.374023
2799.201172	11540.214844
2797.785156	11809.971680
2796.368164	11691.242188
2794.950195	11897.589844
2793.533203	11534.744141
2792.115234	11505.717773
2790.696289	11671.581055
2789.278320	11602.164062
2787.859375	11699.488281
2786.439453	11337.105469
2785.020508	11481.802734
2783.600586	11544.011719
2782.179688	11444.895508
2780.759766	11515.846680
2779.338867	11395.753906
2777.916992	11319.514648
2776.496094	11395.697266
2775.074219	11349.261719
2773.651367	11350.118164
2772.228516	11251.203125
2770.805664	11243.330078
2769.382812	11279.198242
2767.958984	11344.783203
2766.535156	11231.968750
2765.111328	11398.934570
2763.686523	11289.653320
2762.261719	11271.291992
2760.835938	11219.744141
2759.411133	11246.820312
2757.985352	11343.732422
2756.558594	11286.962891
2755.131836	11280.837891
2753.705078	11328.810547
2752.278320	11186.595703
2750.850586	11234.566406
2749.422852	11202.297852
2747.994141	11164.813477
2746.565430	11104.686523
2745.136719	11163.083984
2743.708008	11224.937500
2742.278320	11119.549805
2740.847656	11176.159180
2739.417969	11142.209961
2737.987305	11310.181641
2736.556641	11147.443359
2735.125000	11038.712891
2733.693359	11114.403320
2732.261719	10983.124023
2730.829102	11067.482422
2729.396484	11150.062500
2727.963867	11196.111328
2726.530273	11167.432617
2725.096680	11097.082031
2723.663086	10920.835938
2722.228516	11109.250977
2720.793945	11068.466797
2719.359375	10975.642578
2717.923828	11139.622070
2716.488281	11026.008789
2715.052734	11214.174805
2713.616211	11065.922852
2712.179688	11070.265625
2710.743164	11131.789062
2709.305664	11096.265625
2707.868164	11019.190430
2706.429688	11084.142578
2704.991211	11123.095703
2703.552734	11264.148438
2702.114258	11012.330078
2700.674805	11115.280273
2699.235352	11145.538086
2697.794922	11165.406250
2696.354492	11067.706055
2694.914062	11156.715820
2693.473633	11124.724609
2692.032227	11189.492188
2690.589844	10884.614258
2689.148438	10945.952148
2687.706055	11155.727539
2686.262695	11089.250977
2684.820312	11122.886719
2683.376953	10946.038086
2681.932617	11064.202148
2680.489258	11173.687500
2679.044922	10940.059570
2677.599609	10918.533203
2676.155273	11133.083984
2674.709961	11077.066406
2673.263672	10912.569336
2671.817383	11047.759766
2670.371094	10905.723633
2668.924805	10899.720703
2667.477539	11196.562500
2666.030273	10947.930664
2664.582031	11000.396484
2663.133789	11044.238281
2661.685547	11062.272461
2660.237305	10899.836914
2658.788086	11034.737305
2657.337891	10994.350586
2655.888672	10885.284180
2654.438477	10865.554688
2652.988281	10784.035156
2651.537109	10836.419922
2650.085938	10864.756836
2648.634766	10987.429688
2647.182617	10947.115234
2645.730469	10862.237305
2644.277344	10832.254883
2642.825195	10776.578125
2641.372070	10746.627930
2639.917969	10800.628906
2638.463867	10784.386719
2637.009766	10711.648438
2635.555664	10715.974609
2634.100586	10769.928711
2632.645508	10793.058594
2631.189453	10853.810547
2629.733398	10654.581055
2628.277344	10799.115234
2626.820312	10625.631836
2625.363281	10821.373047
2623.906250	10694.096680
2622.448242	10737.699219
2620.990234	10948.642578
2619.532227	10778.739258
2618.073242	10817.166992
2616.614258	10864.109375
2615.155273	10779.651367
2613.695312	10642.354492
2612.235352	10919.527344
2610.774414	10809.540039
2609.313477	10680.852539
2607.852539	10893.059570
2606.391602	10456.029297
2604.929688	10676.704102
2603.467773	10805.314453
2602.004883	10944.078125
2600.541992	10747.450195
2599.079102	10867.440430
2597.615234	10822.342773
2596.151367	10719.431641
2594.687500	10626.772461
2593.222656	10780.678711
2591.757812	10754.336914
2590.291992	10782.386719
2588.827148	10908.960938
2587.361328	10901.289062
2585.894531	10779.843750
2584.427734	10874.069336
2582.960938	10844.343750
2581.493164	10668.693359
2580.025391	10723.855469
2578.557617	10804.432617
2577.089844	10752.703125
2575.621094	10940.040039
2574.151367	10666.263672
2572.682617	10755.248047
2571.212891	10820.470703
2569.742188	10780.650391
2568.271484	10942.355469
2566.800781	10888.979492
2565.330078	10998.111328
2563.858398	10761.995117
2562.386719	10872.795898
2560.914062	10829.631836
2559.441406	10918.379883
2557.968750	10909.035156
2556.495117	10855.749023
2555.022461	11059.328125
2553.547852	11004.340820
2552.073242	10951.067383
2550.598633	10879.245117
2549.124023	10788.886719
2547.648438	10950.041992
2546.172852	10868.144531
2544.697266	10938.108398
2543.220703	10842.758789
2541.744141	10806.466797
2540.266602	10830.878906
2538.789062	10888.985352
2537.311523	10856.076172
2535.833008	10868.664062
2534.354492	10958.715820
2532.875977	10711.975586
2531.396484	10847.470703
2529.916992	10922.314453
2528.437500	10817.089844
2526.957031	10727.052734
2525.476562	10832.141602
2523.995117	10674.887695
2522.514648	10764.808594
2521.032227	10715.199219
2519.550781	10769.782227
2518.068359	10656.363281
2516.585938	10672.307617
2515.102539	10564.000977
2513.619141	10690.742188
2512.135742	10634.503906
2510.651367	10571.580078
2509.166992	10735.128906
2507.681641	10673.885742
2506.196289	10626.083984
2504.710938	10693.959961
2503.225586	10507.084961
2501.739258	10653.697266
2500.251953	10498.744141
2498.765625	10621.842773
2497.278320	10530.587891
2495.791016	10615.122070
2494.302734	10713.001953
2492.814453	10516.389648
2491.325195	10599.192383
2489.835938	10538.145508
2488.346680	10406.912109
2486.857422	10444.550781
2485.367188	10472.145508
2483.876953	10541.490234
2482.385742	10443.782227
2480.894531	10474.693359
2479.403320	10452.168945
2477.911133	10506.428711
2476.418945	10430.509766
2474.926758	10486.415039
2473.433594	10483.918945
2471.940430	10501.432617
2470.446289	10480.595703
2468.952148	10456.434570
2467.458008	10557.251953
2465.962891	10646.358398
2464.467773	10722.098633
2462.972656	10418.172852
2461.476562	10593.808594
2459.980469	10591.285156
2458.484375	10615.382812
2456.987305	10556.296875
2455.490234	10625.292969
2453.992188	10705.893555
2452.494141	10633.527344
2450.996094	10812.136719
2449.497070	10457.326172
2447.998047	10805.321289
2446.499023	10701.442383
2444.999023	10820.091797
2443.499023	10671.441406
2441.999023	10765.146484
2440.498047	10797.419922
2438.997070	10620.680664
2437.495117	10896.742188
2435.993164	10829.483398
2434.491211	10886.570312
2432.988281	10600.604492
2431.485352	10921.135742
2429.982422	10507.758789
2428.478516	10589.703125
2426.974609	10809.016602
2425.469727	10861.055664
2423.964844	10807.165039
2422.459961	10622.605469
2420.955078	10871.469727
2419.449219	10849.030273
2417.942383	10691.040039
2416.436523	10784.346680
2414.928711	10733.850586
2413.421875	10678.422852
2411.914062	10753.495117
2410.406250	10807.065430
2408.897461	10750.005859
2407.389648	10825.004883
2405.879883	10711.866211
2404.371094	10549.291992
2402.861328	10612.737305
2401.350586	10765.189453
2399.839844	10622.497070
2398.329102	10684.229492
2396.818359	10625.654297
2395.306641	10562.163086
2393.794922	10661.741211
2392.282227	10514.300781
2390.769531	10549.643555
2389.256836	10738.016602
2387.743164	10631.793945
2386.229492	10509.171875
2384.714844	10407.985352
2383.200195	10481.122070
2381.685547	10394.783203
2380.169922	10510.611328
2378.655273	10470.306641
2377.138672	10540.069336
2375.622070	10404.532227
2374.105469	10392.188477
2372.588867	10240.335938
2371.071289	10387.208008
2369.553711	10410.966797
2368.035156	10351.065430
2366.516602	10268.235352
2364.998047	10318.233398
2363.478516	10217.420898
2361.958984	10252.658203
2360.439453	10319.002930
2358.918945	10347.646484
2357.398438	10196.160156
2355.876953	10185.528320
2354.355469	10366.386719
2352.833984	10270.633789
2351.311523	10277.984375
2349.789062	10260.798828
2348.266602	10184.757812
2346.743164	10335.971680
2345.219727	10308.975586
2343.695312	10229.708008
2342.170898	10152.111328
2340.646484	10257.457031
2339.121094	10511.328125
2337.595703	10286.808594
2336.070312	10308.816406
2334.543945	10239.447266
2333.017578	10225.569336
2331.490234	10511.752930
2329.962891	10499.444336
2328.435547	10364.894531
2326.907227	10535.136719
2325.378906	10429.965820
2323.850586	10385.110352
2322.321289	10345.160156
2320.791992	10424.072266
2319.261719	10545.262695
2317.731445	10412.548828
2316.201172	10567.846680
2314.669922	10427.056641
2313.138672	10632.681641
2311.607422	10571.599609
2310.075195	10606.436523
2308.542969	10511.266602
2307.009766	10622.449219
2305.476562	10520.823242
2303.943359	10592.980469
2302.409180	10658.608398
2300.875000	10654.418945
2299.340820	10664.833008
2297.805664	10827.721680
2296.269531	10672.669922
2294.734375	10674.962891
2293.198242	10709.672852
2291.661133	10711.954102
2290.125000	10667.248047
2288.587891	10812.077148
2287.049805	10705.830078
2285.511719	10683.821289
2283.973633	10893.284180
2282.434570	10678.669922
2280.895508	10748.897461
2279.356445	10775.419922
2277.816406	10787.374023
2276.276367	10786.388672
2274.735352	10723.984375
2273.194336	10844.205078
2271.653320	10922.363281
2270.111328	10693.612305
2268.569336	10902.559570
2267.027344	10817.597656
2265.484375	10865.018555
2263.941406	10825.284180
2262.397461	10795.247070
2260.853516	10771.673828
2259.309570	10999.642578
2257.764648	10829.339844
2256.219727	10858.956055
2254.673828	10688.766602
2253.127930	10961.634766
2251.582031	10918.725586
2250.036133	10772.793945
2248.488281	10818.479492
2246.941406	10888.282227
2245.393555	10866.343750
2243.845703	10833.155273
2242.296875	10841.792969
2240.749023	10784.509766
2239.199219	10977.995117
2237.649414	10710.196289
2236.099609	10741.343750
2234.549805	10732.320312
2232.999023	10919.204102
2231.448242	10731.944336
2229.896484	10703.667969
2228.344727	10973.859375
2226.792969	10753.031250
2225.240234	10905.999023
2223.687500	10844.032227
2222.133789	10995.299805
2220.580078	10673.708008
2219.026367	10772.066406
2217.471680	10873.580078
2215.916992	10862.939453
2214.361328	10637.753906
2212.806641	10771.238281
2211.250000	10818.239258
2209.694336	10890.815430
2208.137695	10824.194336
2206.580078	10799.182617
2205.022461	10745.404297
2203.464844	10883.458008
2201.907227	10887.211914
2200.348633	10759.958008
2198.789062	10790.890625
2197.229492	10617.411133
2195.669922	10800.025391
2194.110352	10569.167969
2192.549805	10813.934570
2190.989258	10760.261719
2189.427734	10728.943359
2187.866211	10729.528320
2186.303711	10765.183594
2184.741211	10568.133789
2183.178711	10707.377930
2181.616211	10566.190430
2180.052734	10673.513672
2178.488281	10554.691406
2176.923828	10642.861328
2175.359375	10602.082031
2173.794922	10586.779297
2172.229492	10507.856445
2170.663086	10611.851562
2169.097656	10633.121094
2167.530273	10541.525391
2165.963867	10505.592773
2164.396484	10614.250000
2162.829102	10578.315430
2161.260742	10507.461914
2159.692383	10423.941406
2158.123047	10616.629883
2156.554688	10480.757812
2154.984375	10540.079102
2153.415039	10348.779297
2151.844727	10397.001953
2150.273438	10381.791016
2148.702148	10542.505859
2147.130859	10416.351562
2145.559570	10588.066406
2143.987305	10417.617188
2142.414062	10533.831055
2140.840820	10556.593750
2139.267578	10470.148438
2137.694336	10503.989258
2136.120117	10640.627930
2134.544922	10511.525391
2132.970703	10308.176758
2131.394531	10495.340820
2129.819336	10476.981445
2128.243164	10615.036133
2126.666992	10593.496094
2125.089844	10529.331055
2123.512695	10441.514648
2121.934570	10541.560547
2120.357422	10625.777344
2118.778320	10536.421875
2117.200195	10464.458008
2115.621094	10542.321289
2114.041016	10646.945312
2112.460938	10582.884766
2110.880859	10572.424805
2109.299805	10702.166016
2107.718750	10583.015625
2106.137695	10736.306641
2104.555664	10643.963867
2102.973633	10611.465820
2101.390625	10531.783203
2099.807617	10733.694336
2098.224609	10938.650391
2096.640625	10610.541016
2095.056641	10805.995117
2093.471680	10707.500977
2091.886719	10668.752930
2090.301758	10765.096680
2088.715820	10690.235352
