#Wave		#Intensity
3203.165039	2089.553467
3201.841797	2070.745605
3200.517578	2068.396729
3199.192383	2122.447021
3197.868164	2176.472656
3196.542969	2249.264648
3195.217773	2130.400146
3193.891602	2077.327393
3192.565430	2093.757568
3191.239258	2070.754883
3189.913086	2120.964111
3188.585938	2165.520752
3187.258789	2058.092285
3185.930664	2067.004639
3184.603516	2083.414062
3183.275391	2047.320312
3181.946289	2048.730957
3180.618164	2121.352295
3179.289062	2079.653564
3177.959961	2116.645020
3176.629883	2121.783691
3175.299805	2196.194336
3173.969727	2053.435059
3172.639648	2131.570068
3171.308594	2174.120361
3169.977539	2115.639160
3168.646484	2135.731201
3167.314453	2195.078857
3165.982422	2138.501465
3164.650391	2134.278809
3163.317383	2156.216309
3161.984375	2196.824463
3160.651367	2233.678711
3159.317383	2164.085449
3157.983398	2143.059814
3156.649414	2166.836182
3155.315430	2147.685303
3153.980469	2063.250000
3152.645508	2172.821777
3151.309570	2120.117920
3149.974609	2097.265869
3148.638672	2162.023193
3147.301758	2172.712646
3145.965820	2155.452637
3144.628906	2104.674316
3143.291016	2169.370605
3141.954102	2144.675781
3140.616211	2216.778320
3139.278320	2082.293457
3137.939453	2208.329346
3136.600586	2124.127441
3135.261719	2207.325928
3133.922852	2102.711182
3132.583008	2150.560547
3131.243164	2159.363281
3129.902344	2186.740723
3128.562500	2206.675781
3127.221680	2176.461182
3125.879883	2205.672363
3124.539062	2195.889648
3123.197266	2243.640625
3121.855469	2233.853516
3120.512695	2170.277344
3119.169922	2190.183350
3117.827148	2213.788330
3116.483398	2265.187256
3115.139648	2179.422363
3113.795898	2204.865967
3112.452148	2182.135254
3111.107422	2216.826172
3109.762695	2231.134033
3108.417969	2271.351074
3107.072266	2172.745850
3105.726562	2270.316895
3104.380859	2195.804688
3103.034180	2128.724121
3101.687500	2257.671631
3100.340820	2207.244873
3098.993164	2199.349121
3097.645508	2261.672119
3096.297852	2250.072754
3094.949219	2317.896240
3093.601562	2300.749512
3092.251953	2226.381592
3090.903320	2238.793701
3089.553711	2225.366455
3088.204102	2162.135010
3086.854492	2237.262695
3085.503906	2240.440430
3084.153320	2191.996826
3082.801758	2237.575195
3081.451172	2307.088379
3080.099609	2278.927490
3078.747070	2254.463135
3077.395508	2204.229248
3076.042969	2328.916992
3074.689453	2256.601318
3073.336914	2313.132324
3071.983398	2235.333496
3070.629883	2240.341309
3069.275391	2287.642334
3067.920898	2226.448730
3066.566406	2286.597656
3065.211914	2249.321777
3063.856445	2292.902344
3062.500977	2187.678711
3061.144531	2170.651123
3059.789062	2232.579102
3058.431641	2301.821289
3057.075195	2222.383301
3055.717773	2306.273682
3054.360352	2236.042236
3053.002930	2327.226318
3051.644531	2242.354004
3050.286133	2274.836426
3048.927734	2309.136719
3047.568359	2347.085449
3046.209961	2209.162842
3044.849609	2298.395752
3043.490234	2226.462158
3042.129883	2350.430664
3040.769531	2359.043457
3039.408203	2274.336914
3038.046875	2374.427734
3036.685547	2326.333496
3035.324219	2353.228027
3033.961914	2292.364014
3032.599609	2295.494629
3031.236328	2329.686035
3029.873047	2303.577637
3028.509766	2279.307373
3027.146484	2384.690430
3025.782227	2347.633789
3024.417969	2354.396484
3023.053711	2395.825195
3021.688477	2415.343262
3020.323242	2360.074219
3018.958008	2390.531982
3017.591797	2430.090576
3016.225586	2422.243408
3014.859375	2392.533203
3013.492188	2479.429688
3012.125000	2322.225098
3010.757812	2352.648438
3009.390625	2414.006592
3008.022461	2375.230957
3006.653320	2463.850830
3005.285156	2490.574707
3003.916016	2424.524902
3002.546875	2423.968750
3001.176758	2394.324463
2999.807617	2453.755615
2998.436523	2494.987793
2997.066406	2479.881104
2995.695312	2390.311035
2994.324219	2467.847412
2992.953125	2525.377197
2991.581055	2412.261475
2990.208984	2420.781250
2988.835938	2576.251709
2987.463867	2494.037109
2986.090820	2435.434570
2984.716797	2567.225098
2983.343750	2416.189941
2981.969727	2486.310059
2980.594727	2480.303467
2979.220703	2517.771729
2977.845703	2616.794434
2976.469727	2451.436279
2975.094727	2637.312988
2973.718750	2633.087402
2972.341797	2585.441162
2970.965820	2599.317383
2969.588867	2611.378906
2968.211914	2697.563232
2966.833984	2557.757568
2965.456055	2643.914307
2964.078125	2878.186279
2962.699219	2693.275879
2961.321289	2757.670166
2959.941406	2769.674316
2958.562500	2803.333984
2957.182617	2791.860840
2955.802734	2861.584961
2954.421875	2869.945801
2953.041992	2894.533447
2951.660156	2816.336670
2950.279297	2821.095947
2948.897461	2809.633301
2947.515625	2956.732666
2946.132812	2954.250488
2944.750977	2924.754639
2943.368164	2888.070068
2941.984375	2941.408447
2940.600586	2836.347412
2939.216797	2943.651855
2937.833008	3040.113281
2936.448242	2929.705811
2935.063477	2982.972412
2933.678711	3000.260986
2932.292969	3021.136230
2930.907227	3056.375732
2929.521484	3068.245850
2928.134766	3135.785645
2926.748047	3012.963867
2925.360352	3032.015625
2923.973633	3156.947998
2922.585938	3071.886475
2921.197266	3184.194092
2919.809570	3126.067627
2918.420898	3177.345703
2917.031250	3196.331787
2915.642578	3209.932129
2914.252930	3185.897217
2912.863281	3136.793213
2911.472656	3200.545410
2910.082031	3063.720703
2908.691406	3091.656250
2907.299805	3221.595947
2905.908203	3154.645508
2904.516602	3148.549805
2903.124023	3226.518066
2901.731445	3225.772705
2900.338867	3205.362549
2898.945312	3072.362061
2897.551758	3103.815918
2896.158203	3079.874512
2894.764648	3070.232178
2893.370117	3076.665039
2891.974609	3184.853027
2890.580078	3035.976562
2889.184570	3015.646240
2887.789062	3048.844727
2886.392578	3092.729004
2884.996094	3074.182129
2883.599609	3068.122559
2882.202148	3142.271240
2880.804688	3056.011475
2879.407227	3032.144775
2878.009766	3088.438477
2876.611328	3117.995361
2875.212891	3053.183594
2873.813477	3105.872803
2872.414062	3154.978760
2871.014648	3004.808350
2869.614258	3132.174316
2868.213867	3049.650635
2866.813477	3073.833740
2865.413086	3128.221191
2864.011719	2997.776611
2862.610352	3014.847900
2861.208008	3031.910889
2859.805664	3084.480957
2858.403320	3021.629395
2857.000000	2944.607178
2855.597656	2982.963867
2854.193359	2879.374268
2852.790039	2953.202148
2851.385742	2934.784424
2849.981445	2880.917969
2848.576172	2889.112061
2847.170898	2842.368896
2845.765625	2910.803467
2844.360352	2798.540771
2842.954102	2881.120117
2841.546875	2894.614990
2840.140625	2918.723145
2838.733398	2852.571289
2837.326172	2766.989014
2835.917969	2824.715820
2834.509766	2772.778076
2833.101562	2765.062500
2831.693359	2785.630859
2830.284180	2807.956787
2828.875000	2846.172363
2827.464844	2834.913574
2826.054688	2738.896973
2824.644531	2732.964355
2823.233398	2758.805664
2821.822266	2682.284180
2820.411133	2806.922852
2819.000000	2763.938477
2817.587891	2819.725830
2816.174805	2729.156494
2814.762695	2772.587402
2813.349609	2687.357178
2811.936523	2806.534180
2810.522461	2770.654053
2809.108398	2754.161133
2807.694336	2802.816406
2806.279297	2765.201172
2804.864258	2757.519043
2803.449219	2695.300781
2802.033203	2750.959473
2800.617188	2695.805420
2799.201172	2635.402344
2797.785156	2654.123779
2796.368164	2681.622803
2794.950195	2684.512207
2793.533203	2796.301514
2792.115234	2656.921631
2790.696289	2631.723877
2789.278320	2683.768311
2787.859375	2572.588867
2786.439453	2726.379150
2785.020508	2722.236084
2783.600586	2719.848389
2782.179688	2696.423096
2780.759766	2678.266846
2779.338867	2668.880859
2777.916992	2682.274902
2776.496094	2762.221680
2775.074219	2752.822021
2773.651367	2671.645996
2772.228516	2704.279541
2770.805664	2626.651855
2769.382812	2640.035645
2767.958984	2656.911133
2766.535156	2738.480957
2765.111328	2737.842285
2763.686523	2655.052490
2762.261719	2661.423096
2760.835938	2730.685303
2759.411133	2726.554688
2757.985352	2785.291504
2756.558594	2681.635742
2755.131836	2735.118896
2753.705078	2696.089355
2752.278320	2597.760498
2750.850586	2717.505615
2749.422852	2687.226074
2747.994141	2695.315674
2746.565430	2726.060303
2745.136719	2589.500977
2743.708008	2658.583740
2742.278320	2767.695068
2740.847656	2714.807129
2739.417969	2701.985840
2737.987305	2633.472412
2736.556641	2639.817627
2735.125000	2673.995605
2733.693359	2609.014893
2732.261719	2686.656982
2730.829102	2689.506104
2729.396484	2688.877197
2727.963867	2634.379150
2726.530273	2771.010498
2725.096680	2596.671875
2723.663086	2677.679932
2722.228516	2640.595703
2720.793945	2777.096924
2719.359375	2686.212646
2717.923828	2704.667725
2716.488281	2695.362305
2715.052734	2725.944580
2713.616211	2666.362061
2712.179688	2657.071777
2710.743164	2715.366211
2709.305664	2709.533203
2707.868164	2740.075195
2706.429688	2723.848877
2704.991211	2769.953857
2703.552734	2738.150391
2702.114258	2685.596436
2700.674805	2728.217529
2699.235352	2661.853271
2697.794922	2758.064453
2696.354492	2745.316650
2694.914062	2698.006836
2693.473633	2712.926025
2692.032227	2695.014404
2690.589844	2756.560547
2689.148438	2805.990234
2687.706055	2772.531494
2686.262695	2768.429443
2684.820312	2769.505615
2683.376953	2736.078125
2681.932617	2785.453857
2680.489258	2829.632812
2679.044922	2753.115967
2677.599609	2785.217041
2676.155273	2782.840088
2674.709961	2682.269531
2673.263672	2709.196777
2671.817383	2665.513184
2670.371094	2735.468994
2668.924805	2733.105469
2667.477539	2885.605469
2666.030273	2738.703125
2664.582031	2695.062744
2663.133789	2728.819092
2661.685547	2748.807129
2660.237305	2720.662354
2658.788086	2732.051025
2657.337891	2760.612793
2655.888672	2747.941650
2654.438477	2767.900635
2652.988281	2736.350098
2651.537109	2788.910645
2650.085938	2714.473389
2648.634766	2698.395996
2647.182617	2781.798584
2645.730469	2784.573730
2644.277344	2816.489258
2642.825195	2855.244873
2641.372070	2669.522705
2639.917969	2684.311768
2638.463867	2687.105469
2637.009766	2732.703125
2635.555664	2713.229980
2634.100586	2787.893555
2632.645508	2737.617920
2631.189453	2706.182373
2629.733398	2796.186279
2628.277344	2747.653320
2626.820312	2731.621582
2625.363281	2732.687256
2623.906250	2759.381104
2622.448242	2779.229492
2620.990234	2607.795654
2619.532227	2740.357422
2618.073242	2726.055908
2616.614258	2780.024170
2615.155273	2706.003174
2613.695312	2705.365234
2612.235352	2747.362061
2610.774414	2649.530762
2609.313477	2688.111084
2607.852539	2742.010742
2606.391602	2698.769775
2604.929688	2708.353516
2603.467773	2777.536377
2602.004883	2693.455566
2600.541992	2767.715088
2599.079102	2760.255127
2597.615234	2732.382080
2596.151367	2680.708496
2594.687500	2760.001953
2593.222656	2778.052246
2591.757812	2709.406250
2590.291992	2814.126465
2588.827148	2765.891357
2587.361328	2712.583252
2585.894531	2767.981445
2584.427734	2802.980225
2582.960938	2804.015625
2581.493164	2855.958496
2580.025391	2828.139160
2578.557617	2757.928955
2577.089844	2833.585693
2575.621094	2785.446533
2574.151367	2744.109375
2572.682617	2934.943848
2571.212891	2752.977051
2569.742188	2864.113037
2568.271484	2780.462158
2566.800781	2840.750488
2565.330078	2735.141357
2563.858398	2842.791260
2562.386719	2828.584961
2560.914062	2860.051270
2559.441406	2808.646484
2557.968750	2921.247803
2556.495117	2836.049561
2555.022461	2879.311523
2553.547852	2909.038086
2552.073242	2786.746094
2550.598633	2789.463379
2549.124023	2844.511475
2547.648438	2884.343750
2546.172852	2863.412598
2544.697266	2744.648926
2543.220703	2855.310303
2541.744141	2900.159668
2540.266602	2874.186523
2538.789062	2812.833252
2537.311523	2904.838623
2535.833008	2877.197510
2534.354492	2802.413330
2532.875977	2840.475098
2531.396484	2851.585205
2529.916992	2857.641113
2528.437500	2803.122070
2526.957031	2846.193115
2525.476562	2774.884766
2523.995117	2933.954834
2522.514648	2897.958984
2521.032227	2873.743896
2519.550781	2841.139160
2518.068359	2827.027100
2516.585938	2831.394287
2515.102539	2953.286133
2513.619141	2870.335938
2512.135742	2820.988037
2510.651367	2887.428711
2509.166992	2843.131836
2507.681641	2842.456787
2506.196289	2826.692627
2504.710938	2872.954102
2503.225586	2867.244385
2501.739258	2844.783447
2500.251953	2829.032959
2498.765625	2751.330322
2497.278320	2872.891602
2495.791016	2882.251709
2494.302734	2817.978027
2492.814453	2855.787109
2491.325195	2828.346680
2489.835938	2784.197510
2488.346680	2790.222656
2486.857422	2911.571045
2485.367188	2847.380859
2483.876953	2893.480469
2482.385742	2901.143311
2480.894531	2755.180176
2479.403320	2873.052734
2477.911133	2884.052246
2476.418945	2836.644775
2474.926758	2835.969727
2473.433594	2900.339844
2471.940430	2924.660889
2470.446289	2950.636963
2468.952148	2899.935791
2467.458008	2875.917969
2465.962891	2863.572266
2464.467773	2959.485840
2462.972656	2890.514404
2461.476562	2886.496582
2459.980469	2889.137451
2458.484375	2918.398438
2456.987305	2817.895752
2455.490234	2920.333984
2453.992188	2949.565918
2452.494141	2962.161133
2450.996094	2986.383301
2449.497070	2937.488525
2447.998047	3011.536865
2446.499023	2917.820557
2444.999023	2907.162842
2443.499023	2886.551025
2441.999023	2826.120605
2440.498047	2953.197266
2438.997070	2950.833984
2437.495117	2945.155029
2435.993164	3037.295410
2434.491211	3044.858154
2432.988281	3082.245361
2431.485352	3036.778076
2429.982422	3045.991211
2428.478516	3013.801270
2426.974609	2994.870850
2425.469727	3075.257812
2423.964844	3096.035156
2422.459961	3045.665283
2420.955078	2950.662109
2419.449219	2991.296387
2417.942383	3013.726074
2416.436523	3032.839355
2414.928711	3063.509766
2413.421875	2968.614746
2411.914062	3005.891602
2410.406250	3020.033936
2408.897461	2971.438965
2407.389648	3066.451904
2405.879883	2978.268311
2404.371094	2951.162354
2402.861328	2986.739502
2401.350586	3028.894531
2399.839844	3046.302734
2398.329102	2982.948730
2396.818359	3026.721436
2395.306641	3022.702637
2393.794922	2997.276611
2392.282227	2996.559326
2390.769531	2974.443115
2389.256836	3006.644775
2387.743164	2843.042236
2386.229492	2995.335938
2384.714844	2997.907715
2383.200195	3046.512695
2381.685547	2932.367676
2380.169922	3005.614258
2378.655273	3034.466797
2377.138672	3009.102051
2375.622070	2960.759277
2374.105469	2951.841064
2372.588867	2993.808594
2371.071289	2943.862793
2369.553711	2907.064941
2368.035156	2937.531006
2366.516602	2967.982422
2364.998047	2968.910400
2363.478516	2910.833984
2361.958984	3057.609131
2360.439453	2937.287354
2358.918945	3020.110840
2357.398438	2849.095459
2355.876953	2961.366211
2354.355469	2932.833008
2352.833984	2961.581543
2351.311523	2998.495117
2349.789062	3079.547852
2348.266602	2987.245605
2346.743164	2893.352783
2345.219727	3025.033936
2343.695312	2991.630127
2342.170898	3018.680908
2340.646484	2960.797607
2339.121094	3015.598389
2337.595703	3055.681641
2336.070312	3012.517822
2334.543945	3011.793945
2333.017578	3073.053467
2331.490234	3052.746094
2329.962891	3021.035645
2328.435547	2999.120117
2326.907227	2995.140137
2325.378906	3046.553711
2323.850586	3099.570801
2322.321289	3051.602295
2320.791992	3052.496338
2319.261719	3128.259766
2317.731445	3029.874512
2316.201172	3035.652832
2314.669922	3060.945557
2313.138672	3052.078857
2311.607422	3085.482910
2310.075195	3104.243652
2308.542969	3163.616455
2307.009766	3151.483643
2305.476562	3160.469482
2303.943359	3101.255615
2302.409180	3167.064453
2300.875000	3098.139404
2299.340820	3086.035645
2297.805664	3189.108643
2296.269531	3147.796875
2294.734375	3108.126221
2293.198242	3113.861328
2291.661133	3161.728027
2290.125000	3204.710938
2288.587891	3174.782227
2287.049805	3102.763672
2285.511719	3195.917969
2283.973633	3232.375732
2282.434570	3162.012695
2280.895508	3162.868164
2279.356445	3344.876709
2277.816406	3171.044922
2276.276367	3199.380127
2274.735352	3293.968506
2273.194336	3267.319580
2271.653320	3243.914307
2270.111328	3170.451904
2268.569336	3248.807861
2267.027344	3249.637939
2265.484375	3266.606934
2263.941406	3248.069336
2262.397461	3260.190186
2260.853516	3249.726562
2259.309570	3237.655029
2257.764648	3377.116211
2256.219727	3211.917236
2254.673828	3227.253662
2253.127930	3326.344727
2251.582031	3320.709717
2250.036133	3137.972656
2248.488281	3299.789307
2246.941406	3323.130615
2245.393555	3257.972412
2243.845703	3179.977539
2242.296875	3280.518799
2240.749023	3218.632812
2239.199219	3217.854492
2237.649414	3254.035645
2236.099609	3235.576660
2234.549805	3252.461670
2232.999023	3214.742188
2231.448242	3241.255859
2229.896484	3295.041260
2228.344727	3289.430176
2226.792969	3222.861328
2225.240234	3254.157715
2223.687500	3279.024902
2222.133789	3310.291992
2220.580078	3160.443359
2219.026367	3359.961914
2217.471680	3216.580566
2215.916992	3300.680908
2214.361328	3285.471436
2212.806641	3239.855225
2211.250000	3205.463379
2209.694336	3201.486816
2208.137695	3219.905762
2206.580078	3236.716309
2205.022461	3240.728027
2203.464844	3207.974854
2201.907227	3339.831543
2200.348633	3251.152832
2198.789062	3350.989990
2197.229492	3267.141602
2195.669922	3298.278320
2194.110352	3257.576660
2192.549805	3253.594971
2190.989258	3230.471436
2189.427734	3263.180908
2187.866211	3278.334229
2186.303711	3341.303955
2184.741211	3271.961914
2183.178711	3240.893799
2181.616211	3345.243408
2180.052734	3240.913086
2178.488281	3211.466553
2176.923828	3217.053955
2175.359375	3240.144043
2173.794922	3212.309326
2172.229492	3222.663818
2170.663086	3293.442871
2169.097656	3225.867676
2167.530273	3171.041016
2165.963867	3205.230713
2164.396484	3280.710449
2162.829102	3227.498047
2161.260742	3258.472412
2159.692383	3221.166260
2158.123047	3272.760010
2156.554688	3227.533936
2154.984375	3247.372314
2153.415039	3403.598389
2151.844727	3139.555420
2150.273438	3284.634521
2148.702148	3231.534912
2147.130859	3297.296631
2145.559570	3274.316895
2143.987305	3256.099365
2142.414062	3275.889893
2140.840820	3287.756104
2139.267578	3279.042969
2137.694336	3376.338623
2136.120117	3241.065430
2134.544922	3267.159668
2132.970703	3166.760498
2131.394531	3233.956055
2129.819336	3264.772949
2128.243164	3303.473877
2126.666992	3241.069824
2125.089844	3257.649902
2123.512695	3218.967285
2121.934570	3379.170654
2120.357422	3291.560791
2118.778320	3334.929688
2117.200195	3269.453125
2115.621094	3290.730713
2114.041016	3334.067139
2112.460938	3237.117676
2110.880859	3360.802246
2109.299805	3378.885254
2107.718750	3344.989014
2106.137695	3311.109131
2104.555664	3288.263916
2102.973633	3370.867432
2101.390625	3280.365723
2099.807617	3350.346924
2098.224609	3363.682129
2096.640625	3257.525879
2095.056641	3316.458008
2093.471680	3348.647705
2091.886719	3327.406494
2090.301758	3383.136475
2088.715820	3440.409180
2087.129883	3434.859131
2085.542969	3280.210938
2083.956055	3401.799072
2082.369141	3397.830322
2080.781250	3367.201416
2079.193359	3319.340088
2077.604492	3284.042236
2076.015625	3407.046631
2074.426758	3425.015137
2072.836914	3339.591309
2071.247070	3388.887451
2069.656250	3394.321289
2068.065430	3371.577148
2066.474609	3345.714355
2064.882812	3332.379883
2063.291016	3412.898438
2061.698242	3279.145996
2060.105469	3304.920410
2058.512695	3343.185547
2056.918945	3329.866455
2055.325195	3393.101562
2053.731445	3361.034424
2052.136719	3394.562988
2050.541016	3301.629395
2048.946289	3313.306152
2047.349609	3376.466553
2045.753906	3395.918213
2044.157227	3371.693115
2042.560547	3442.587646
