#Wave		#Intensity
3203.165039	4062.498047
3201.841797	4068.140381
3200.517578	4117.990234
3199.192383	4120.818359
3197.868164	4189.428223
3196.542969	4026.878906
3195.217773	4131.172363
3193.891602	4051.351807
3192.565430	4101.135742
3191.239258	4088.943115
3189.913086	4059.863281
3188.585938	4036.425781
3187.258789	4063.653564
3185.930664	4088.992920
3184.603516	4144.324707
3183.275391	4030.896240
3181.946289	4043.104004
3180.618164	4034.692383
3179.289062	3966.330078
3177.959961	4077.819824
3176.629883	4052.550537
3175.299805	4222.010254
3173.969727	4090.023193
3172.639648	4094.710449
3171.308594	4146.170898
3169.977539	4147.101562
3168.646484	4050.782959
3167.314453	4163.918945
3165.982422	4063.900635
3164.650391	4104.094727
3163.317383	4243.299316
3161.984375	4156.406738
3160.651367	4157.331543
3159.317383	4152.653809
3157.983398	4147.978516
3156.649414	4210.493164
3155.315430	4112.509277
3153.980469	4201.120605
3152.645508	4162.865234
3151.309570	4270.070312
3149.974609	4131.147949
3148.638672	4294.225586
3147.301758	4218.714844
3145.965820	4195.401367
3144.628906	4214.936523
3143.291016	4202.806641
3141.954102	4198.128418
3140.616211	4197.174805
3139.278320	4237.160156
3137.939453	4198.988770
3136.600586	4160.834473
3135.261719	4133.854980
3133.922852	4123.619629
3132.583008	4226.771484
3131.243164	4145.903320
3129.902344	4154.250000
3128.562500	4153.305664
3127.221680	4150.504395
3125.879883	4283.237793
3124.539062	4235.858398
3123.197266	4325.828125
3121.855469	4230.221191
3120.512695	4219.983887
3119.169922	4178.224609
3117.827148	4240.312988
3116.483398	4365.397949
3115.139648	4182.786133
3113.795898	4239.271484
3112.452148	4412.433105
3111.107422	4309.569336
3109.762695	4258.596191
3108.417969	4311.309570
3107.072266	4212.239746
3105.726562	4313.046875
3104.380859	4230.669922
3103.034180	4268.544922
3101.687500	4193.611328
3100.340820	4214.839355
3098.993164	4297.047852
3097.645508	4199.984375
3096.297852	4189.790527
3094.949219	4331.049316
3093.601562	4330.062012
3092.251953	4292.153320
3090.903320	4241.341797
3089.553711	4262.518066
3088.204102	4263.390625
3086.854492	4243.974609
3085.503906	4239.318848
3084.153320	4330.530273
3082.801758	4242.914551
3081.451172	4192.193359
3080.099609	4327.567383
3078.747070	4298.951660
3077.395508	4318.226562
3076.042969	4320.923340
3074.689453	4215.021973
3073.336914	4313.430664
3071.983398	4347.401855
3070.629883	4425.501953
3069.275391	4286.570801
3067.920898	4440.027832
3066.566406	4387.546875
3065.211914	4318.550781
3063.856445	4335.937012
3062.500977	4384.541504
3061.144531	4350.484375
3059.789062	4393.554199
3058.431641	4410.906250
3057.075195	4398.887207
3055.717773	4408.890625
3054.360352	4376.699219
3053.002930	4361.027832
3051.644531	4473.707031
3050.286133	4316.873535
3048.927734	4414.849609
3047.568359	4443.155762
3046.209961	4420.157715
3044.849609	4475.919922
3043.490234	4436.445801
3042.129883	4411.633789
3040.769531	4441.736816
3039.408203	4566.970703
3038.046875	4436.045898
3036.685547	4519.159180
3035.324219	4505.325684
3033.961914	4374.503418
3032.599609	4680.542480
3031.236328	4595.419922
3029.873047	4382.460449
3028.509766	4575.051758
3027.146484	4517.399902
3025.782227	4591.211914
3024.417969	4495.254395
3023.053711	4563.563477
3021.688477	4464.006836
3020.323242	4608.893066
3018.958008	4547.663086
3017.591797	4575.789551
3016.225586	4523.708008
3014.859375	4675.734863
3013.492188	4703.811523
3012.125000	4520.598145
3010.757812	4532.308105
3009.390625	4589.525391
3008.022461	4535.689941
3006.653320	4642.011230
3005.285156	4757.379883
3003.916016	4661.708496
3002.546875	4591.538574
3001.176758	4732.290527
2999.807617	4596.702148
2998.436523	4722.850098
2997.066406	4607.310547
2995.695312	4709.784668
2994.324219	4656.041504
2992.953125	4711.253906
2991.581055	4829.968262
2990.208984	4827.044922
2988.835938	4789.651367
2987.463867	4725.066895
2986.090820	4892.630371
2984.716797	4728.335449
2983.343750	4812.441406
2981.969727	4827.645508
2980.594727	4819.289551
2979.220703	4935.919434
2977.845703	4914.865234
2976.469727	4939.082520
2975.094727	5061.034180
2973.718750	5150.354980
2972.341797	5143.743164
2970.965820	5144.369629
2969.588867	5128.719238
2968.211914	5245.061035
2966.833984	5312.543457
2965.456055	5352.887207
2964.078125	5490.777344
2962.699219	5419.066406
2961.321289	5387.118652
2959.941406	5537.542969
2958.562500	5482.115723
2957.182617	5507.924316
2955.802734	5586.044922
2954.421875	5646.090820
2953.041992	5642.987305
2951.660156	5686.764160
2950.279297	5712.494141
2948.897461	5646.299316
2947.515625	5592.747070
2946.132812	5890.486816
2944.750977	5826.096680
2943.368164	5839.159180
2941.984375	5922.419922
2940.600586	5922.854980
2939.216797	5865.711914
2937.833008	5957.902344
2936.448242	5945.738281
2935.063477	5885.032227
2933.678711	6092.201660
2932.292969	6080.014160
2930.907227	6139.703613
2929.521484	6145.473633
2928.134766	6239.243652
2926.748047	6227.031250
2925.360352	6259.703125
2923.973633	6269.027344
2922.585938	6398.567383
2921.197266	6355.831055
2919.809570	6309.526855
2918.420898	6336.760254
2917.031250	6453.614258
2915.642578	6348.173828
2914.252930	6482.888672
2912.863281	6354.200684
2911.472656	6349.151367
2910.082031	6297.548828
2908.691406	6480.483887
2907.299805	6321.487305
2905.908203	6454.229004
2904.516602	6320.355957
2903.124023	6404.745605
2901.731445	6358.562988
2900.338867	6339.216797
2898.945312	6289.495117
2897.551758	6330.926758
2896.158203	6200.837891
2894.764648	6183.330078
2893.370117	6242.612305
2891.974609	6242.954590
2890.580078	6143.346191
2889.184570	6218.654785
2887.789062	6242.192871
2886.392578	6210.428223
2884.996094	6223.257324
2883.599609	6155.855469
2882.202148	6218.595703
2880.804688	6267.051270
2879.407227	6192.558594
2878.009766	6406.639648
2876.611328	6120.245605
2875.212891	6181.139160
2873.813477	6158.349609
2872.414062	6222.764160
2871.014648	6201.753906
2869.614258	6214.546875
2868.213867	6095.745117
2866.813477	6110.333496
2865.413086	6092.921875
2864.011719	6064.855469
2862.610352	6104.312012
2861.208008	6053.165039
2859.805664	5980.732422
2858.403320	6075.214844
2857.000000	5937.137207
2855.597656	6061.751953
2854.193359	5854.550293
2852.790039	5874.477539
2851.385742	5754.305664
2849.981445	5823.886230
2848.576172	5686.056152
2847.170898	5672.333008
2845.765625	5564.719238
2844.360352	5597.081543
2842.954102	5578.075195
2841.546875	5645.827148
2840.140625	5586.106934
2838.733398	5598.967285
2837.326172	5583.514648
2835.917969	5408.879883
2834.509766	5595.069824
2833.101562	5462.943359
2831.693359	5449.302246
2830.284180	5426.831543
2828.875000	5506.839844
2827.464844	5275.941895
2826.054688	5417.753906
2824.644531	5442.977539
2823.233398	5383.465820
2821.822266	5260.453613
2820.411133	5275.109375
2819.000000	5360.312012
2817.587891	5142.164062
2816.174805	5313.745117
2814.762695	5254.343750
2813.349609	5048.707031
2811.936523	5156.764648
2810.522461	5231.304688
2809.108398	5326.941895
2807.694336	5172.534180
2806.279297	5122.046875
2804.864258	5078.621582
2803.449219	5270.966797
2802.033203	5180.035645
2800.617188	5323.028809
2799.201172	5038.734863
2797.785156	5107.870117
2796.368164	5052.205078
2794.950195	5044.001953
2793.533203	5041.071289
2792.115234	5096.091797
2790.696289	5149.330078
2789.278320	5149.886719
2787.859375	5103.061523
2786.439453	4956.255371
2785.020508	5048.063965
2783.600586	5020.583984
2782.179688	4940.520508
2780.759766	5077.839844
2779.338867	4982.027832
2777.916992	5026.418457
2776.496094	5039.259277
2775.074219	5004.812500
2773.651367	5059.669922
2772.228516	5016.482422
2770.805664	4983.813965
2769.382812	5021.141602
2767.958984	5039.210938
2766.535156	4997.814941
2765.111328	4993.152832
2763.686523	4894.105957
2762.261719	4966.358398
2760.835938	4898.811035
2759.411133	4993.734863
2757.985352	5065.912598
2756.558594	5012.354492
2755.131836	4918.675781
2753.705078	4933.232910
2752.278320	4984.420410
2750.850586	4913.487305
2749.422852	4955.935547
2747.994141	4970.469238
2746.565430	4929.219238
2745.136719	5053.534668
2743.708008	4939.111816
2742.278320	4972.793945
2740.847656	4982.080078
2739.417969	4892.126465
2737.987305	4927.535156
2736.556641	4888.100098
2735.125000	4916.533203
2733.693359	4873.639648
2732.261719	4862.066895
2730.829102	4800.081543
2729.396484	4878.912598
2727.963867	4877.771973
2726.530273	4946.123535
2725.096680	5103.024902
2723.663086	4810.099609
2722.228516	4888.834473
2720.793945	4875.541016
2719.359375	4929.929199
2717.923828	4890.607910
2716.488281	4827.022461
2715.052734	4853.637695
2713.616211	5018.932617
2712.179688	4853.099121
2710.743164	4909.146484
2709.305664	4975.562012
2707.868164	4886.063477
2706.429688	4867.602539
2704.991211	4913.205566
2703.552734	4989.941406
2702.114258	4843.417969
2700.674805	4904.563477
2699.235352	4967.409180
2697.794922	4890.160645
2696.354492	4838.879883
2694.914062	4768.610352
2693.473633	5000.769531
2692.032227	4966.773438
2690.589844	4813.618164
2689.148438	4860.838867
2687.706055	4889.046875
2686.262695	4905.159668
2684.820312	4859.145020
2683.376953	4775.198242
2681.932617	4863.764648
2680.489258	4964.358887
2679.044922	4878.721680
2677.599609	4932.729492
2676.155273	4940.187500
2674.709961	4858.060059
2673.263672	4980.926270
2671.817383	4871.276855
2670.371094	4839.145996
2668.924805	4848.336426
2667.477539	4881.611816
2666.030273	4753.163574
2664.582031	4930.915527
2663.133789	4871.294922
2661.685547	4887.341309
2660.237305	4846.663574
2658.788086	4866.143555
2657.337891	4985.250977
2655.888672	4839.812500
2654.438477	4847.260254
2652.988281	4921.653320
2651.537109	4762.601074
2650.085938	4838.694824
2648.634766	4851.280273
2647.182617	4870.720215
2645.730469	4857.572266
2644.277344	4695.291504
2642.825195	4985.538574
2641.372070	4859.285156
2639.917969	4755.360352
2638.463867	4863.849121
2637.009766	4850.719238
2635.555664	4782.816406
2634.100586	4865.550293
2632.645508	4837.028809
2631.189453	4844.442871
2629.733398	4807.388184
2628.277344	4814.805176
2626.820312	4767.517578
2625.363281	4711.706543
2623.906250	4763.562988
2622.448242	4772.690430
2620.990234	4802.306152
2619.532227	4804.589355
2618.073242	4660.070312
2616.614258	4746.007812
2615.155273	4871.146973
2613.695312	4820.531250
2612.235352	4817.689453
2610.774414	4789.273926
2609.313477	4580.187012
2607.852539	4826.211426
2606.391602	4850.629883
2604.929688	4789.868164
2603.467773	4763.193848
2602.004883	4818.254883
2600.541992	4869.885254
2599.079102	4788.753418
2597.615234	4828.456055
2596.151367	4829.017578
2594.687500	4703.737305
2593.222656	4746.831055
2591.757812	4842.596191
2590.291992	4984.198242
2588.827148	4833.514160
2587.361328	4757.636230
2585.894531	4916.138672
2584.427734	4937.048340
2582.960938	4996.986816
2581.493164	4798.960449
2580.025391	5025.163574
2578.557617	4849.273438
2577.089844	4880.346680
2575.621094	4948.702637
2574.151367	5003.465820
2572.682617	4902.305176
2571.212891	4835.074707
2569.742188	4976.206055
2568.271484	4941.162598
2566.800781	4919.678711
2565.330078	5035.300293
2563.858398	4913.967773
2562.386719	4977.091309
2560.914062	4921.791016
2559.441406	4883.426270
2557.968750	4897.485352
2556.495117	4950.410645
2555.022461	4888.408691
2553.547852	4865.290527
2552.073242	5039.788086
2550.598633	4846.102051
2549.124023	4829.761230
2547.648438	4992.328125
2546.172852	4997.895508
2544.697266	4882.000000
2543.220703	4992.155273
2541.744141	4962.308105
2540.266602	5040.362305
2538.789062	4868.948730
2537.311523	5058.193359
2535.833008	4977.821289
2534.354492	4991.798828
2532.875977	5066.384277
2531.396484	4866.548340
2529.916992	5075.762695
2528.437500	4919.765137
2526.957031	4964.016602
2525.476562	4986.383789
2523.995117	4835.561035
2522.514648	4869.714355
2521.032227	4850.072754
2519.550781	4828.760254
2518.068359	4886.406250
2516.585938	4964.176270
2515.102539	4899.197754
2513.619141	4903.070801
2512.135742	4967.355469
2510.651367	4912.487793
2509.166992	4904.611816
2507.681641	4730.720215
2506.196289	4957.609863
2504.710938	4904.471191
2503.225586	4916.712402
2501.739258	4962.455078
2500.251953	4844.027832
2498.765625	4921.582520
2497.278320	4833.355469
2495.791016	4961.088379
2494.302734	5021.824219
2492.814453	4823.218262
2491.325195	4815.381836
2489.835938	4881.124512
2488.346680	4851.543457
2486.857422	4823.647461
2485.367188	4819.158691
2483.876953	4874.812988
2482.385742	4907.057617
2480.894531	4804.032227
2479.403320	4901.384277
2477.911133	4858.493164
2476.418945	4967.465332
2474.926758	4846.171875
2473.433594	4881.710449
2471.940430	4900.557617
2470.446289	4877.719727
2468.952148	4949.890137
2467.458008	4928.716797
2465.962891	4910.884766
2464.467773	4939.693359
2462.972656	5060.064941
2461.476562	5032.225586
2459.980469	4886.236816
2458.484375	5001.542480
2456.987305	5055.245117
2455.490234	5025.768555
2453.992188	4974.690918
2452.494141	5015.062012
2450.996094	4960.686523
2449.497070	4962.827148
2447.998047	5059.647461
2446.499023	4992.013672
2444.999023	4967.579590
2443.499023	5097.526367
2441.999023	5111.245605
2440.498047	4998.867188
2438.997070	5059.046387
2437.495117	5069.447754
2435.993164	5058.290527
2434.491211	5098.521484
2432.988281	5135.418457
2431.485352	5094.431641
2429.982422	5068.370605
2428.478516	4990.987305
2426.974609	4978.207031
2425.469727	5135.912109
2423.964844	5045.329590
2422.459961	5001.111328
2420.955078	5001.570801
2419.449219	5187.228516
2417.942383	5179.376953
2416.436523	5045.917480
2414.928711	5152.116211
2413.421875	5051.766113
2411.914062	5088.545410
2410.406250	5065.863281
2408.897461	5150.494141
2407.389648	4980.921387
2405.879883	5070.480957
2404.371094	4993.386230
2402.861328	5148.868164
2401.350586	5137.743652
2399.839844	5016.179199
2398.329102	5110.565430
2396.818359	4997.303223
2395.306641	5137.770996
2393.794922	5121.719727
2392.282227	5071.100098
2390.769531	5010.627930
2389.256836	5037.405273
2387.743164	5016.456055
2386.229492	5125.462402
2384.714844	5033.788086
2383.200195	5095.058105
2381.685547	4880.156738
2380.169922	4951.293457
2378.655273	5076.611816
2377.138672	5063.897949
2375.622070	4941.167480
2374.105469	5002.369141
2372.588867	4994.604980
2371.071289	4983.562500
2369.553711	4870.810059
2368.035156	5112.386719
2366.516602	4897.991211
2364.998047	5003.375977
2363.478516	4931.700195
2361.958984	4969.843750
2360.439453	4955.545898
2358.918945	4967.459961
2357.398438	4866.386230
2355.876953	4986.357910
2354.355469	5027.713867
2352.833984	4933.242188
2351.311523	4956.595703
2349.789062	4976.666992
2348.266602	5088.291504
2346.743164	4918.699707
2345.219727	4914.250000
2343.695312	4980.059082
2342.170898	4955.994629
2340.646484	4941.739746
2339.121094	4867.081055
2337.595703	4962.218262
2336.070312	5054.045410
2334.543945	5018.568848
2333.017578	4924.388672
2331.490234	5109.109863
2329.962891	5109.512207
2328.435547	5034.936035
2326.907227	4950.617676
2325.378906	5104.199219
2323.850586	5102.972168
2322.321289	5142.454590
2320.791992	5105.401855
2319.261719	4973.965820
2317.731445	5037.857910
2316.201172	5152.150391
2314.669922	5053.325195
2313.138672	5141.541504
2311.607422	5228.089355
2310.075195	5061.054688
2308.542969	5037.088379
2307.009766	5277.922852
2305.476562	5140.229004
2303.943359	5168.218262
2302.409180	5043.602539
2300.875000	5139.762695
2299.340820	5148.260254
2297.805664	5249.214355
2296.269531	5197.676270
2294.734375	5272.627441
2293.198242	5253.526367
2291.661133	5218.228516
2290.125000	5249.374512
2288.587891	5254.588867
2287.049805	5240.367188
2285.511719	5308.721191
2283.973633	5310.678223
2282.434570	5212.304199
2280.895508	5172.219727
2279.356445	5143.475586
2277.816406	5274.833496
2276.276367	5341.461426
2274.735352	5338.556641
2273.194336	5235.467773
2271.653320	5209.972168
2270.111328	5270.088867
2268.569336	5320.487793
2267.027344	5328.889648
2265.484375	5277.571289
2263.941406	5189.165527
2262.397461	5250.826172
2260.853516	5306.004883
2259.309570	5299.886719
2257.764648	5316.338379
2256.219727	5284.434082
2254.673828	5373.385254
2253.127930	5326.983887
2251.582031	5303.150879
2250.036133	5288.989258
2248.488281	5303.807617
2246.941406	5415.174316
2245.393555	5236.889160
2243.845703	5354.650879
2242.296875	5334.059570
2240.749023	5308.653809
2239.199219	5353.982422
2237.649414	5275.555176
2236.099609	5385.130371
2234.549805	5306.732422
2232.999023	5340.775391
2231.448242	5414.936035
2229.896484	5310.906738
2228.344727	5389.851562
2226.792969	5324.378418
2225.240234	5379.223633
2223.687500	5434.041992
2222.133789	5336.543457
2220.580078	5356.085938
2219.026367	5370.811523
2217.471680	5444.799316
2215.916992	5361.804688
2214.361328	5365.309082
2212.806641	5327.192871
2211.250000	5322.701660
2209.694336	5225.415527
2208.137695	5446.487305
2206.580078	5373.205078
2205.022461	5301.556152
2203.464844	5324.247070
2201.907227	5346.926270
2200.348633	5396.753906
2198.789062	5219.750000
2197.229492	5232.855469
2195.669922	5320.988281
2194.110352	5281.392090
2192.549805	5300.854492
2190.989258	5326.688477
2189.427734	5274.359375
2187.866211	5360.777832
2186.303711	5187.310547
2184.741211	5182.864258
2183.178711	5251.713867
2181.616211	5280.705566
2180.052734	5311.275391
2178.488281	5233.560059
2176.923828	5219.554688
2175.359375	5337.644043
2173.794922	5290.207520
2172.229492	5175.985840
2170.663086	5287.637695
2169.097656	5257.734863
2167.530273	5237.383789
2165.963867	5232.932617
2164.396484	5201.475098
2162.829102	5251.037598
2161.260742	5249.761230
2159.692383	5172.281738
2158.123047	5239.272949
2156.554688	5147.551758
2154.984375	5106.639648
2153.415039	5187.870605
2151.844727	5242.105957
2150.273438	5167.909180
2148.702148	5141.294434
2147.130859	5090.924316
2145.559570	5176.810547
2143.987305	5349.758301
2142.414062	5237.624023
2140.840820	5294.917480
2139.267578	5287.298340
2137.694336	5290.757324
2136.120117	5107.564453
2134.544922	5202.785645
2132.970703	5184.127441
2131.394531	5377.281738
2129.819336	5257.453613
2128.243164	5281.450684
2126.666992	5275.425293
2125.089844	5182.553223
2123.512695	5239.701660
2121.934570	5225.798340
2120.357422	5304.999023
2118.778320	5256.379395
2117.200195	5332.378418
2115.621094	5316.887207
2114.041016	5372.340820
2112.460938	5394.670898
2110.880859	5253.124512
2109.299805	5234.515625
2107.718750	5367.101074
2106.137695	5353.195801
2104.555664	5248.000000
2102.973633	5275.045898
2101.390625	5322.531250
2099.807617	5436.056152
2098.224609	5463.034668
2096.640625	5247.886719
2095.056641	5399.067871
2093.471680	5334.893555
2091.886719	5316.309570
2090.301758	5252.186035
2088.715820	5395.365723
2087.129883	5395.617676
2085.542969	5289.144043
2083.956055	5438.484863
2082.369141	5316.365234
2080.781250	5473.466797
2079.193359	5379.620117
2077.604492	5378.305176
2076.015625	5392.662109
2074.426758	5444.614746
2072.836914	5382.192871
2071.247070	5427.857910
2069.656250	5377.995117
2068.065430	5367.288086
2066.474609	5527.157715
2064.882812	5402.209961
2063.291016	5400.888184
2061.698242	5457.424805
2060.105469	5512.369629
2058.512695	5498.516602
2056.918945	5440.917480
2055.325195	5514.571289
2053.731445	5361.724609
2052.136719	5401.008789
2050.541016	5435.590332
2048.946289	5401.484863
2047.349609	5428.247070
2045.753906	5423.797363
2044.157227	5395.956543
2042.560547	5432.054199
